LabVIEW Measurement	
Writer_Version	2
Reader_Version	2
Separator	Tab
Decimal_Separator	.
Multi_Headings	Yes
X_Columns	One
Time_Pref	Relative
Operator	bjl40
Description	Time Domain Data
Date	1903/12/31
Time	19:00:00
***End_of_Header***	
	
Channels	1	
Samples	10000	
Date	1903/12/31	
Time	19:00:00	
X_Dimension	Time	
X0	0.0000000000000000E+0	
Delta_X	0.001000	
***End_of_Header***		
X_Value	Untitled	Comment
0.000000	1.808725	Tare Values:0.000000, 0.000000, 0.000000, 0.000000\0D\0A
0.001000	1.889571
0.002000	1.910829
0.003000	1.881519
0.004000	1.877654
0.005000	1.882485
0.006000	1.827085
0.007000	1.719183
0.008000	1.598075
0.009000	1.534945
0.010000	1.475035
0.011000	1.433163
0.012000	1.430908
0.013000	1.354894
0.014000	1.254723
0.015000	1.126207
0.016000	1.019272
0.017000	0.977722
0.018000	1.030867
0.019000	1.161960
0.020000	1.475680
0.021000	1.719183
0.022000	1.834171
0.023000	1.921459
0.024000	1.934986
0.025000	1.913728
0.026000	1.807437
0.027000	1.727558
0.028000	1.704367
0.029000	1.688584
0.030000	1.694382
0.031000	1.716284
0.032000	1.722082
0.033000	1.642525
0.034000	1.494361
0.035000	1.336857
0.036000	1.353928
0.037000	1.572308
0.038000	1.940784
0.039000	2.292512
0.040000	2.402990
0.041000	2.412331
0.042000	2.348556
0.043000	2.164318
0.044000	1.886994
0.045000	1.543642
0.046000	1.308513
0.047000	1.242805
0.048000	1.334602
0.049000	1.403530
0.050000	1.370033
0.051000	1.318497
0.052000	1.324617
0.053000	1.410294
0.054000	1.467627
0.055000	1.582293
0.056000	1.709842
0.057000	1.762988
0.058000	1.804216
0.059000	1.776516
0.060000	1.565544
0.061000	1.328160
0.062000	1.218004
0.063000	1.236041
0.064000	1.351673
0.065000	1.375830
0.066000	1.362624
0.067000	1.459575
0.068000	1.525926
0.069000	1.656697
0.070000	1.749138
0.071000	1.745595
0.072000	1.675056
0.073000	1.561035
0.074000	1.413515
0.075000	1.285322
0.076000	1.182252
0.077000	1.126529
0.078000	1.080148
0.079000	1.135226
0.080000	1.333314
0.081000	1.534301
0.082000	1.723370
0.083000	1.856395
0.084000	1.969773
0.085000	2.011001
0.086000	2.081218
0.087000	2.093779
0.088000	2.114715
0.089000	2.167539
0.090000	2.102798
0.091000	1.829339
0.092000	1.502091
0.093000	1.354572
0.094000	1.311734
0.095000	1.252790
0.096000	1.236363
0.097000	1.375508
0.098000	1.617723
0.099000	1.753647
0.100000	1.873466
0.101000	1.906320
0.102000	1.974604
0.103000	2.100543
0.104000	2.187509
0.105000	2.139195
0.106000	1.960110
0.107000	1.725947
0.108000	1.539132
0.109000	1.444436
0.110000	1.393545
0.111000	1.360692
0.112000	1.335568
0.113000	1.252468
0.114000	1.217682
0.115000	1.205442
0.116000	1.179675
0.117000	1.151653
0.118000	1.123952
0.119000	1.170012
0.120000	1.292086
0.121000	1.499837
0.122000	1.639626
0.123000	1.726913
0.124000	1.819032
0.125000	1.972994
0.126000	1.997151
0.127000	1.922103
0.128000	1.847699
0.129000	1.757512
0.130000	1.662816
0.131000	1.579716
0.132000	1.495972
0.133000	1.441860
0.134000	1.479867
0.135000	1.646390
0.136000	1.882163
0.137000	1.943039
0.138000	1.853497
0.139000	1.685363
0.140000	1.499837
0.141000	1.451522
0.142000	1.562001
0.143000	1.731423
0.144000	1.850276
0.145000	1.957855
0.146000	1.934986
0.147000	1.836103
0.148000	1.643491
0.149000	1.503702
0.150000	1.381306
0.151000	1.280812
0.152000	1.172589
0.153000	1.041818
0.154000	0.976433
0.155000	1.043107
0.156000	1.326872
0.157000	1.612570
0.158000	1.819032
0.159000	1.885384
0.160000	1.880552
0.161000	1.850276
0.162000	1.884096
0.163000	1.936919
0.164000	1.911474
0.165000	1.825796
0.166000	1.729812
0.167000	1.645423
0.168000	1.597431
0.169000	1.523994
0.170000	1.505312
0.171000	1.507889
0.172000	1.535267
0.173000	1.571020
0.174000	1.489208
0.175000	1.443792
0.176000	1.522383
0.177000	1.658629
0.178000	1.735610
0.179000	1.650899
0.180000	1.507567
0.181000	1.292730
0.182000	1.115578
0.183000	1.011219
0.184000	0.992538
0.185000	1.023781
0.186000	1.278236
0.187000	1.601619
0.188000	1.856717
0.189000	1.979113
0.190000	1.964941
0.191000	1.917593
0.192000	1.935953
0.193000	2.061570
0.194000	2.179134
0.195000	2.186543
0.196000	2.077352
0.197000	1.932088
0.198000	1.875399
0.199000	1.697603
0.200000	1.482444
0.201000	1.325584
0.202000	1.255689
0.203000	1.283711
0.204000	1.404819
0.205000	1.505312
0.206000	1.609671
0.207000	1.628030
0.208000	1.486309
0.209000	1.409006
0.210000	1.373576
0.211000	1.359081
0.212000	1.334924
0.213000	1.355216
0.214000	1.409006
0.215000	1.617723
0.216000	1.944971
0.217000	2.018731
0.218000	2.002948
0.219000	1.851242
0.220000	1.594855
0.221000	1.396766
0.222000	1.268573
0.223000	1.283711
0.224000	1.282745
0.225000	1.414482
0.226000	1.620622
0.227000	1.730456
0.228000	1.771362
0.229000	1.818066
0.230000	1.833205
0.231000	1.698247
0.232000	1.594855
0.233000	1.509177
0.234000	1.427043
0.235000	1.418347
0.236000	1.460219
0.237000	1.477612
0.238000	1.525604
0.239000	1.570053
0.240000	1.604839
0.241000	1.592278
0.242000	1.684397
0.243000	1.779415
0.244000	1.707266
0.245000	1.566832
0.246000	1.494039
0.247000	1.483410
0.248000	1.464084
0.249000	1.565544
0.250000	1.816456
0.251000	2.033225
0.252000	2.140805
0.253000	2.173981
0.254000	2.125022
0.255000	1.972994
0.256000	1.614824
0.257000	1.246026
0.258000	1.048582
0.259000	0.945190
0.260000	0.941969
0.261000	1.098507
0.262000	1.394512
0.263000	1.604517
0.264000	1.725947
0.265000	1.596465
0.266000	1.418025
0.267000	1.325584
0.268000	1.334602
0.269000	1.389358
0.270000	1.453455
0.271000	1.523672
0.272000	1.615469
0.273000	1.678921
0.274000	1.677955
0.275000	1.613536
0.276000	1.564578
0.277000	1.548473
0.278000	1.566832
0.279000	1.623843
0.280000	1.656697
0.281000	1.710809
0.282000	1.766853
0.283000	1.689872
0.284000	1.492428
0.285000	1.422212
0.286000	1.433485
0.287000	1.482766
0.288000	1.567477
0.289000	1.772329
0.290000	2.000050
0.291000	2.156910
0.292000	2.241299
0.293000	2.257403
0.294000	2.297021
0.295000	2.335350
0.296000	2.286070
0.297000	2.158198
0.298000	1.828051
0.299000	1.598075
0.300000	1.635438
0.301000	1.810980
0.302000	1.790044
0.303000	1.572952
0.304000	1.348774
0.305000	1.120732
0.306000	1.036665
0.307000	1.053736
0.308000	1.098829
0.309000	1.179675
0.310000	1.299172
0.311000	1.493717
0.312000	1.538810
0.313000	1.488241
0.314000	1.419957
0.315000	1.348452
0.316000	1.327194
0.317000	1.305936
0.318000	1.281779
0.319000	1.265996
0.320000	1.241517
0.321000	1.165825
0.322000	1.124597
0.323000	1.188049
0.324000	1.310767
0.325000	1.330415
0.326000	1.340078
0.327000	1.378407
0.328000	1.464406
0.329000	1.649611
0.330000	1.872500
0.331000	2.073487
0.332000	2.094423
0.333000	1.936597
0.334000	1.753003
0.335000	1.652509
0.336000	1.551694
0.337000	1.517552
0.338000	1.580038
0.339000	1.695026
0.340000	1.838036
0.341000	1.899878
0.342000	1.844478
0.343000	1.783924
0.344000	1.771040
0.345000	1.748494
0.346000	1.671835
0.347000	1.594210
0.348000	1.646712
0.349000	1.659918
0.350000	1.576495
0.351000	1.462152
0.352000	1.347164
0.353000	1.315921
0.354000	1.332025
0.355000	1.424144
0.356000	1.559424
0.357000	1.798096
0.358000	1.915339
0.359000	1.884418
0.360000	1.677633
0.361000	1.454743
0.362000	1.370999
0.363000	1.322041
0.364000	1.219615
0.365000	1.249569
0.366000	1.402886
0.367000	1.680210
0.368000	2.038057
0.369000	2.227449
0.370000	2.206512
0.371000	2.069622
0.372000	2.022596
0.373000	2.005847
0.374000	1.947870
0.375000	1.905354
0.376000	1.847055
0.377000	1.853174
0.378000	1.703400
0.379000	1.549439
0.380000	1.476968
0.381000	1.254079
0.382000	1.066298
0.383000	0.961939
0.384000	0.992860
0.385000	1.172589
0.386000	1.293374
0.387000	1.496294
0.388000	1.755902
0.389000	2.021630
0.390000	2.086371
0.391000	2.040311
0.392000	1.965263
0.393000	1.833205
0.394000	1.725625
0.395000	1.675056
0.396000	1.571664
0.397000	1.487919
0.398000	1.420924
0.399000	1.439605
0.400000	1.570375
0.401000	1.679888
0.402000	1.858650
0.403000	2.086371
0.404000	2.116326
0.405000	1.964619
0.406000	1.759767
0.407000	1.526893
0.408000	1.319464
0.409000	1.153585
0.410000	1.080470
0.411000	1.117189
0.412000	1.223480
0.413000	1.375186
0.414000	1.489208
0.415000	1.617401
0.416000	1.737865
0.417000	1.697603
0.418000	1.582937
0.419000	1.375830
0.420000	1.195780
0.421000	1.070485
0.422000	1.016695
0.423000	1.118155
0.424000	1.353606
0.425000	1.552016
0.426000	1.743662
0.427000	1.980724
0.428000	2.192662
0.429000	2.284137
0.430000	2.286070
0.431000	2.163030
0.432000	1.962042
0.433000	1.847055
0.434000	1.724981
0.435000	1.682464
0.436000	1.705333
0.437000	1.685685
0.438000	1.761377
0.439000	1.821287
0.440000	1.728524
0.441000	1.661206
0.442000	1.634794
0.443000	1.853819
0.444000	2.083150
0.445000	1.911474
0.446000	1.595177
0.447000	1.298206
0.448000	1.151653
0.449000	1.061466
0.450000	0.990283
0.451000	1.035699
0.452000	1.244094
0.453000	1.410616
0.454000	1.646068
0.455000	1.950125
0.456000	2.180423
0.457000	2.244198
0.458000	2.202647
0.459000	2.008746
0.460000	1.819999
0.461000	1.673768
0.462000	1.612248
0.463000	1.462474
0.464000	1.245060
0.465000	1.080148
0.466000	1.008321
0.467000	0.951310
0.468000	0.954531
0.469000	1.122986
0.470000	1.385815
0.471000	1.837070
0.472000	2.204258
0.473000	2.387530
0.474000	2.441642
0.475000	2.404923
0.476000	2.193307
0.477000	1.874111
0.478000	1.609349
0.479000	1.439605
0.480000	1.328482
0.481000	1.216394
0.482000	1.114290
0.483000	1.046972
0.484000	1.043751
0.485000	1.168724
0.486000	1.359081
0.487000	1.465373
0.488000	1.552338
0.489000	1.650255
0.490000	1.778771
0.491000	1.905676
0.492000	1.932088
0.493000	1.970417
0.494000	2.053195
0.495000	2.040956
0.496000	1.926934
0.497000	1.759445
0.498000	1.646390
0.499000	1.574563
0.500000	1.537522
0.501000	1.590023
0.502000	1.676989
0.503000	1.753325
0.504000	1.821287
0.505000	1.724659
0.506000	1.567799
0.507000	1.406107
0.508000	1.222191
0.509000	1.084335
0.510000	1.033766
0.511000	1.025714
0.512000	1.084335
0.513000	1.188049
0.514000	1.394834
0.515000	1.686329
0.516000	1.852852
0.517000	1.852852
0.518000	2.010679
0.519000	2.176880
0.520000	2.203936
0.521000	2.063824
0.522000	1.957855
0.523000	1.779737
0.524000	1.616435
0.525000	1.500481
0.526000	1.402242
0.527000	1.445725
0.528000	1.572630
0.529000	1.667326
0.530000	1.752037
0.531000	1.793909
0.532000	1.773295
0.533000	1.666682
0.534000	1.618367
0.535000	1.635761
0.536000	1.703078
0.537000	1.762022
0.538000	1.802283
0.539000	1.884740
0.540000	2.020986
0.541000	2.008424
0.542000	1.973638
0.543000	1.878942
0.544000	1.719183
0.545000	1.528825
0.546000	1.276303
0.547000	1.131039
0.548000	1.081436
0.549000	1.101406
0.550000	1.183862
0.551000	1.355216
0.552000	1.547829
0.553000	1.597753
0.554000	1.552338
0.555000	1.528181
0.556000	1.507889
0.557000	1.522705
0.558000	1.543642
0.559000	1.559746
0.560000	1.668614
0.561000	1.803894
0.562000	1.877009
0.563000	1.838036
0.564000	1.709198
0.565000	1.497582
0.566000	1.296273
0.567000	1.231210
0.568000	1.237330
0.569000	1.285322
0.570000	1.322363
0.571000	1.311089
0.572000	1.319142
0.573000	1.325261
0.574000	1.330093
0.575000	1.361980
0.576000	1.426721
0.577000	1.531080
0.578000	1.664427
0.579000	1.789400
0.580000	1.851886
0.581000	1.873466
0.582000	1.777160
0.583000	1.616113
0.584000	1.529791
0.585000	1.484054
0.586000	1.406107
0.587000	1.341044
0.588000	1.269217
0.589000	1.154874
0.590000	1.056957
0.591000	1.055024
0.592000	1.235397
0.593000	1.753647
0.594000	2.441320
0.595000	2.498653
0.596000	2.772756
0.597000	2.771467
0.598000	2.770501
0.599000	2.760838
0.600000	2.487701
0.601000	2.154011
0.602000	1.719827
0.603000	1.528503
0.604000	1.541387
0.605000	1.562645
0.606000	1.510144
0.607000	1.449590
0.608000	1.225412
0.609000	1.026358
0.610000	0.913625
0.611000	0.843086
0.612000	0.882382
0.613000	1.045684
0.614000	1.261809
0.615000	1.449590
0.616000	1.598398
0.617000	1.581327
0.618000	1.495005
0.619000	1.435418
0.620000	1.400632
0.621000	1.369711
0.622000	1.349096
0.623000	1.314954
0.624000	1.287899
0.625000	1.349419
0.626000	1.525926
0.627000	1.532368
0.628000	1.434774
0.629000	1.343299
0.630000	1.265352
0.631000	1.220903
0.632000	1.276303
0.633000	1.407073
0.634000	1.581327
0.635000	1.771040
0.636000	1.922747
0.637000	1.982979
0.638000	1.946260
0.639000	1.810658
0.640000	1.677955
0.641000	1.616435
0.642000	1.623521
0.643000	1.649289
0.644000	1.707266
0.645000	1.732711
0.646000	1.728202
0.647000	1.702434
0.648000	1.645101
0.649000	1.630285
0.650000	1.666360
0.651000	1.634794
0.652000	1.522705
0.653000	1.428976
0.654000	1.378085
0.655000	1.373898
0.656000	1.315277
0.657000	1.277914
0.658000	1.336857
0.659000	1.375186
0.660000	1.495649
0.661000	1.830628
0.662000	2.066079
0.663000	2.292190
0.664000	2.355642
0.665000	2.283815
0.666000	2.121157
0.667000	1.927578
0.668000	1.789722
0.669000	1.789400
0.670000	1.853174
0.671000	1.922103
0.672000	1.937241
0.673000	1.670869
0.674000	1.356827
0.675000	1.151975
0.676000	1.057601
0.677000	1.106237
0.678000	1.303681
0.679000	1.489208
0.680000	1.485020
0.681000	1.335568
0.682000	1.226378
0.683000	1.191592
0.684000	1.246993
0.685000	1.459253
0.686000	1.842545
0.687000	2.208445
0.688000	2.377867
0.689000	2.422638
0.690000	2.400092
0.691000	2.326976
0.692000	2.094423
0.693000	1.652832
0.694000	1.379373
0.695000	1.178709
0.696000	1.104627
0.697000	1.157450
0.698000	1.296917
0.699000	1.449590
0.700000	1.376152
0.701000	1.232820
0.702000	1.200933
0.703000	1.299494
0.704000	1.312378
0.705000	1.321718
0.706000	1.365523
0.707000	1.432841
0.708000	1.457642
0.709000	1.377763
0.710000	1.376474
0.711000	1.363591
0.712000	1.381306
0.713000	1.496294
0.714000	1.550406
0.715000	1.540098
0.716000	1.571342
0.717000	1.599686
0.718000	1.578106
0.719000	1.619978
0.720000	1.688906
0.721000	1.770718
0.722000	1.806471
0.723000	1.757512
0.724000	1.754936
0.725000	1.833849
0.726000	1.743340
0.727000	1.530758
0.728000	1.421890
0.729000	1.398377
0.730000	1.396122
0.731000	1.451845
0.732000	1.552016
0.733000	1.713063
0.734000	1.879586
0.735000	1.993286
0.736000	2.108273
0.737000	2.222939
0.738000	2.315058
0.739000	2.329553
0.740000	2.186865
0.741000	2.031615
0.742000	1.883129
0.743000	1.680854
0.744000	1.433807
0.745000	1.255045
0.746000	1.224446
0.747000	1.219615
0.748000	1.191914
0.749000	1.171300
0.750000	1.268251
0.751000	1.466661
0.752000	1.665393
0.753000	1.800351
0.754000	1.806793
0.755000	1.804216
0.756000	1.681176
0.757000	1.519807
0.758000	1.497260
0.759000	1.554915
0.760000	1.434774
0.761000	1.190626
0.762000	0.936172
0.763000	0.808944
0.764000	0.844375
0.765000	0.969669
0.766000	1.223158
0.767000	1.624487
0.768000	1.995540
0.769000	2.251928
0.770000	2.391073
0.771000	2.406211
0.772000	2.402668
0.773000	2.336317
0.774000	2.104086
0.775000	1.925324
0.776000	1.802283
0.777000	1.693738
0.778000	1.604517
0.779000	1.541709
0.780000	1.524638
0.781000	1.518196
0.782000	1.502091
0.783000	1.415448
0.784000	1.298528
0.785000	1.328160
0.786000	1.372931
0.787000	1.445081
0.788000	1.433807
0.789000	1.407396
0.790000	1.300460
0.791000	1.166147
0.792000	1.110102
0.793000	1.139735
0.794000	1.250858
0.795000	1.361336
0.796000	1.363269
0.797000	1.306902
0.798000	1.343621
0.799000	1.404175
0.800000	1.550083
0.801000	1.777160
0.802000	1.833849
0.803000	1.841901
0.804000	2.062536
0.805000	2.290257
0.806000	2.361118
0.807000	2.296055
0.808000	1.966874
0.809000	1.687618
0.810000	1.539132
0.811000	1.457642
0.812000	1.432519
0.813000	1.598075
0.814000	1.825474
0.815000	1.890860
0.816000	1.809047
0.817000	1.681176
0.818000	1.557814
0.819000	1.515941
0.820000	1.528825
0.821000	1.565866
0.822000	1.619978
0.823000	1.654442
0.824000	1.669258
0.825000	1.580360
0.826000	1.368744
0.827000	1.154229
0.828000	1.062432
0.829000	1.082080
0.830000	1.211562
0.831000	1.344587
0.832000	1.481155
0.833000	1.523027
0.834000	1.631895
0.835000	1.823864
0.836000	1.957211
0.837000	2.126955
0.838000	2.282205
0.839000	2.333096
0.840000	2.257403
0.841000	1.955278
0.842000	1.587446
0.843000	1.350385
0.844000	1.303681
0.845000	1.284033
0.846000	1.342332
0.847000	1.508533
0.848000	1.712741
0.849000	1.980402
0.850000	2.247741
0.851000	2.296055
0.852000	2.166251
0.853000	1.940784
0.854000	1.687296
0.855000	1.446369
0.856000	1.336857
0.857000	1.160993
0.858000	1.124597
0.859000	1.149398
0.860000	1.180963
0.861000	1.229922
0.862000	1.249569
0.863000	1.254401
0.864000	1.237008
0.865000	1.280168
0.866000	1.389036
0.867000	1.380984
0.868000	1.254079
0.869000	1.107526
0.870000	1.093354
0.871000	1.261809
0.872000	1.538810
0.873000	1.768141
0.874000	1.963975
0.875000	2.141771
0.876000	2.203614
0.877000	2.152723
0.878000	2.019697
0.879000	1.853497
0.880000	1.785857
0.881000	1.782636
0.882000	1.786179
0.883000	1.769752
0.884000	1.690839
0.885000	1.694382
0.886000	1.857684
0.887000	1.997473
0.888000	1.857362
0.889000	1.808403
0.890000	1.764920
0.891000	1.558136
0.892000	1.361336
0.893000	1.251180
0.894000	1.212206
0.895000	1.230888
0.896000	1.237330
0.897000	1.166791
0.898000	1.152619
0.899000	1.225734
0.900000	1.348130
0.901000	1.569087
0.902000	1.736576
0.903000	1.848343
0.904000	1.925002
0.905000	2.048364
0.906000	2.147247
0.907000	2.215853
0.908000	2.231958
0.909000	2.140805
0.910000	1.971383
0.911000	1.778771
0.912000	1.738509
0.913000	1.780059
0.914000	1.800351
0.915000	1.808081
0.916000	1.727558
0.917000	1.668614
0.918000	1.617723
0.919000	1.490174
0.920000	1.472781
0.921000	1.399987
0.922000	1.310123
0.923000	1.241195
0.924000	1.196102
0.925000	1.186761
0.926000	1.190948
0.927000	1.253112
0.928000	1.376797
0.929000	1.609993
0.930000	1.725625
0.931000	1.698247
0.932000	1.567799
0.933000	1.379373
0.934000	1.227667
0.935000	1.149076
0.936000	1.109458
0.937000	1.234109
0.938000	1.515297
0.939000	1.953668
0.940000	2.296699
0.941000	2.218752
0.942000	1.892792
0.943000	1.606128
0.944000	1.420601
0.945000	1.296273
0.946000	1.282101
0.947000	1.399665
0.948000	1.442182
0.949000	1.431553
0.950000	1.413193
0.951000	1.458286
0.952000	1.578428
0.953000	1.809047
0.954000	1.951091
0.955000	1.957855
0.956000	1.929189
0.957000	1.818710
0.958000	1.593244
0.959000	1.365845
0.960000	1.202544
0.961000	1.164536
0.962000	1.217682
0.963000	1.372287
0.964000	1.757834
0.965000	2.249673
0.966000	2.356287
0.967000	2.368848
0.968000	2.389140
0.969000	2.407500
0.970000	2.340826
0.971000	1.969773
0.972000	1.539454
0.973000	1.325584
0.974000	1.293374
0.975000	1.436384
0.976000	1.569409
0.977000	1.628352
0.978000	1.686651
0.979000	1.665393
0.980000	1.631573
0.981000	1.620300
0.982000	1.569731
0.983000	1.482121
0.984000	1.381306
0.985000	1.377763
0.986000	1.551050
0.987000	1.697281
0.988000	1.574885
0.989000	1.446047
0.990000	1.357471
0.991000	1.342655
0.992000	1.370033
0.993000	1.426721
0.994000	1.425111
0.995000	1.337823
0.996000	1.257622
0.997000	1.279202
0.998000	1.346842
0.999000	1.519484
1.000000	1.763310
1.001000	1.839002
1.002000	1.776838
1.003000	1.691161
1.004000	1.557492
1.005000	1.446047
1.006000	1.466017
1.007000	1.601941
1.008000	1.613858
1.009000	1.487919
1.010000	1.298850
1.011000	1.201577
1.012000	1.200933
1.013000	1.333314
1.014000	1.574563
1.015000	1.772651
1.016000	1.869601
1.017000	1.781992
1.018000	1.623843
1.019000	1.607738
1.020000	1.604839
1.021000	1.604839
1.022000	1.608705
1.023000	1.667004
1.024000	1.786823
1.025000	1.867347
1.026000	1.843189
1.027000	1.739475
1.028000	1.621588
1.029000	1.485987
1.030000	1.334280
1.031000	1.261809
1.032000	1.224124
1.033000	1.261165
1.034000	1.407396
1.035000	1.588735
1.036000	1.752681
1.037000	1.810014
1.038000	1.879264
1.039000	2.057060
1.040000	2.272864
1.041000	2.386886
1.042000	2.413620
1.043000	2.380122
1.044000	2.286070
1.045000	1.961720
1.046000	1.485342
1.047000	1.195457
1.048000	0.964838
1.049000	0.864022
1.050000	0.874652
1.051000	1.044717
1.052000	1.401276
1.053000	1.876365
1.054000	2.070266
1.055000	2.104408
1.056000	2.089914
1.057000	1.991675
1.058000	1.773617
1.059000	1.565544
1.060000	1.342332
1.061000	1.312056
1.062000	1.458931
1.063000	1.535911
1.064000	1.630929
1.065000	1.746883
1.066000	1.852530
1.067000	1.845444
1.068000	1.912762
1.069000	1.931121
1.070000	1.836748
1.071000	1.662172
1.072000	1.534301
1.073000	1.470204
1.074000	1.495972
1.075000	1.594855
1.076000	1.529791
1.077000	1.367134
1.078000	1.255689
1.079000	1.218326
1.080000	1.203832
1.081000	1.139413
1.082000	1.135870
1.083000	1.162926
1.084000	1.244738
1.085000	1.397089
1.086000	1.586802
1.087000	1.704367
1.088000	1.773295
1.089000	1.841901
1.090000	1.889893
1.091000	1.924357
1.092000	1.823542
1.093000	1.693415
1.094000	1.582937
1.095000	1.471814
1.096000	1.437995
1.097000	1.414804
1.098000	1.351351
1.099000	1.377441
1.100000	1.356505
1.101000	1.417058
1.102000	1.512398
1.103000	1.581649
1.104000	1.590989
1.105000	1.606772
1.106000	1.643813
1.107000	1.906964
1.108000	1.899234
1.109000	1.503380
1.110000	1.260843
1.111000	1.256333
1.112000	1.359726
1.113000	1.557169
1.114000	1.859938
1.115000	2.116326
1.116000	2.221329
1.117000	2.310227
1.118000	2.440031
1.119000	2.495110
1.120000	2.498975
1.121000	2.472241
1.122000	2.195883
1.123000	1.548795
1.124000	1.046006
1.125000	0.878517
1.126000	0.947445
1.127000	1.084335
1.128000	1.161315
1.129000	1.160349
1.130000	1.156806
1.131000	1.143600
1.132000	1.129428
1.133000	1.125563
1.134000	1.141668
1.135000	1.215427
1.136000	1.285322
1.137000	1.277269
1.138000	1.225090
1.139000	1.155840
1.140000	1.177420
1.141000	1.235719
1.142000	1.393545
1.143000	1.675056
1.144000	1.932410
1.145000	2.087337
1.146000	2.139195
1.147000	2.061570
1.148000	1.840291
1.149000	1.531402
1.150000	1.382594
1.151000	1.512076
1.152000	1.510788
1.153000	1.357793
1.154000	1.267929
1.155000	1.288221
1.156000	1.323007
1.157000	1.382594
1.158000	1.610315
1.159000	1.915661
1.160000	2.151434
1.161000	2.185576
1.162000	2.049652
1.163000	1.956889
1.164000	1.913728
1.165000	1.861227
1.166000	1.811302
1.167000	1.808403
1.168000	1.865092
1.169000	1.912118
1.170000	1.953346
1.171000	1.960110
1.172000	1.896657
1.173000	2.011323
1.174000	2.038379
1.175000	1.987810
1.176000	1.838358
1.177000	1.612248
1.178000	1.404175
1.179000	1.292086
1.180000	1.252468
1.181000	1.285966
1.182000	1.364879
1.183000	1.382916
1.184000	1.386459
1.185000	1.408684
1.186000	1.490174
1.187000	1.552338
1.188000	1.619334
1.189000	1.706943
1.190000	1.775228
1.191000	1.683431
1.192000	1.571664
1.193000	1.469238
1.194000	1.384849
1.195000	1.348130
1.196000	1.432197
1.197000	1.544930
1.198000	1.727880
1.199000	1.994252
1.200000	2.110528
1.201000	2.176236
1.202000	2.119547
1.203000	2.011645
1.204000	1.760411
1.205000	1.458286
1.206000	1.257300
1.207000	1.139413
1.208000	1.084335
1.209000	1.093676
1.210000	1.066620
1.211000	0.991894
1.212000	0.963872
1.213000	1.019916
1.214000	1.196424
1.215000	1.485342
1.216000	1.861227
1.217000	2.095390
1.218000	2.211344
1.219000	2.212954
1.220000	2.060603
1.221000	1.867991
1.222000	1.588091
1.223000	1.408040
1.224000	1.433807
1.225000	1.477290
1.226000	1.487597
1.227000	1.349741
1.228000	1.221869
1.229000	1.164858
1.230000	1.165825
1.231000	1.232498
1.232000	1.278880
1.233000	1.345876
1.234000	1.464084
1.235000	1.499192
1.236000	1.493717
1.237000	1.303359
1.238000	1.163248
1.239000	1.227989
1.240000	1.577461
1.241000	2.081218
1.242000	2.436488
1.243000	2.499297
1.244000	2.766636
1.245000	2.768891
1.246000	2.771467
1.247000	2.763737
1.248000	2.480615
1.249000	1.651221
1.250000	1.105915
1.251000	0.964516
1.252000	0.988029
1.253000	1.118155
1.254000	1.362624
1.255000	1.712419
1.256000	2.004237
1.257000	2.077997
1.258000	1.967518
1.259000	1.788111
1.260000	1.605162
1.261000	1.536233
1.262000	1.480511
1.263000	1.493717
1.264000	1.437995
1.265000	1.237330
1.266000	1.023137
1.267000	0.944546
1.268000	0.930374
1.269000	0.947767
1.270000	1.054058
1.271000	1.216394
1.272000	1.416092
1.273000	1.553626
1.274000	1.574885
1.275000	1.571664
1.276000	1.549117
1.277000	1.503058
1.278000	1.442826
1.279000	1.384527
1.280000	1.378407
1.281000	1.483410
1.282000	1.655086
1.283000	1.829662
1.284000	2.009712
1.285000	2.087982
1.286000	2.024207
1.287000	1.897301
1.288000	1.793909
1.289000	1.620300
1.290000	1.500159
1.291000	1.405785
1.292000	1.399665
1.293000	1.385171
1.294000	1.370677
1.295000	1.356505
1.296000	1.353928
1.297000	1.339434
1.298000	1.304003
1.299000	1.263097
1.300000	1.317209
1.301000	1.483410
1.302000	1.687296
1.303000	1.796164
1.304000	1.913406
1.305000	1.853497
1.306000	1.725303
1.307000	1.679888
1.308000	1.951413
1.309000	2.391717
1.310000	2.494788
1.311000	2.498008
1.312000	2.497042
1.313000	2.388174
1.314000	1.750104
1.315000	1.152619
1.316000	0.904284
1.317000	0.890434
1.318000	0.904928
1.319000	0.945512
1.320000	1.036987
1.321000	1.146821
1.322000	1.290153
1.323000	1.438639
1.324000	1.618045
1.325000	1.752681
1.326000	1.854785
1.327000	1.938530
1.328000	2.087015
1.329000	2.311193
1.330000	2.402024
1.331000	2.383021
1.332000	2.280272
1.333000	2.091847
1.334000	1.788111
1.335000	1.556847
1.336000	1.271794
1.337000	1.048582
1.338000	1.020238
1.339000	1.120732
1.340000	1.253112
1.341000	1.321718
1.342000	1.321718
1.343000	1.153263
1.344000	0.988995
1.345000	0.908149
1.346000	0.899775
1.347000	0.968703
1.348000	1.235397
1.349000	1.737220
1.350000	2.079929
1.351000	2.114071
1.352000	2.063824
1.353000	1.915661
1.354000	1.707588
1.355000	1.434451
1.356000	1.285966
1.357000	1.170012
1.358000	1.140379
1.359000	1.190304
1.360000	1.388070
1.361000	1.716284
1.362000	2.104086
1.363000	2.302497
1.364000	2.272864
1.365000	2.188153
1.366000	2.023885
1.367000	1.904387
1.368000	1.845766
1.369000	1.738831
1.370000	1.568765
1.371000	1.348130
1.372000	1.265352
1.373000	1.291119
1.374000	1.397089
1.375000	1.550083
1.376000	1.746239
1.377000	2.002948
1.378000	2.155621
1.379000	2.196205
1.380000	2.066723
1.381000	1.870245
1.382000	1.738187
1.383000	1.595821
1.384000	1.600652
1.385000	1.806471
1.386000	1.938530
1.387000	1.978791
1.388000	1.971383
1.389000	2.048686
1.390000	2.145314
1.391000	2.210378
1.392000	2.048686
1.393000	1.780059
1.394000	1.465373
1.395000	1.263741
1.396000	1.202866
1.397000	1.151975
1.398000	1.098185
1.399000	1.053092
1.400000	1.025714
1.401000	1.040852
1.402000	1.131683
1.403000	1.227345
1.404000	1.404175
1.405000	1.686007
1.406000	1.877654
1.407000	1.881841
1.408000	1.742374
1.409000	1.503380
1.410000	1.303037
1.411000	1.199323
1.412000	1.202866
1.413000	1.230566
1.414000	1.225090
1.415000	1.326550
1.416000	1.409972
1.417000	1.542353
1.418000	1.633828
1.419000	1.701790
1.420000	1.697603
1.421000	1.685041
1.422000	1.664749
1.423000	1.699535
1.424000	1.802283
1.425000	1.939496
1.426000	2.075420
1.427000	2.102154
1.428000	2.028072
1.429000	1.989420
1.430000	1.866380
1.431000	1.690195
1.432000	1.510144
1.433000	1.631895
1.434000	1.688262
1.435000	1.524316
1.436000	1.280490
1.437000	1.170012
1.438000	1.142956
1.439000	1.130716
1.440000	1.167757
1.441000	1.273726
1.442000	1.426399
1.443000	1.609671
1.444000	1.716284
1.445000	1.675378
1.446000	1.453777
1.447000	1.306258
1.448000	1.296917
1.449000	1.349096
1.450000	1.451522
1.451000	1.641558
1.452000	2.020342
1.453000	2.326332
1.454000	2.337927
1.455000	2.240977
1.456000	2.109562
1.457000	1.955601
1.458000	1.824186
1.459000	1.677633
1.460000	1.511754
1.461000	1.434129
1.462000	1.485342
1.463000	1.616757
1.464000	1.785857
1.465000	1.769752
1.466000	1.558136
1.467000	1.386459
1.468000	1.254723
1.469000	1.119121
1.470000	1.048905
1.471000	1.080470
1.472000	1.198678
1.473000	1.394512
1.474000	1.440893
1.475000	1.518840
1.476000	1.692449
1.477000	1.915983
1.478000	1.983945
1.479000	1.958821
1.480000	1.876365
1.481000	1.795519
1.482000	1.685685
1.483000	1.628030
1.484000	1.686007
1.485000	1.760411
1.486000	2.015832
1.487000	2.221007
1.488000	2.230025
1.489000	2.038057
1.490000	1.605806
1.491000	1.186439
1.492000	0.978044
1.493000	0.897842
1.494000	0.951954
1.495000	1.120409
1.496000	1.372931
1.497000	1.570375
1.498000	1.595499
1.499000	1.590345
1.500000	1.602585
1.501000	1.614502
1.502000	1.579072
1.503000	1.449268
1.504000	1.250858
1.505000	1.059856
1.506000	0.900097
1.507000	0.863056
1.508000	0.942935
1.509000	1.243127
1.510000	1.780703
1.511000	2.243553
1.512000	2.436166
1.513000	2.465477
1.514000	2.448728
1.515000	2.376579
1.516000	2.154333
1.517000	1.914372
1.518000	1.783602
1.519000	1.765243
1.520000	1.779737
1.521000	1.843512
1.522000	1.854463
1.523000	1.805827
1.524000	1.738509
1.525000	1.717573
1.526000	1.747205
1.527000	1.740763
1.528000	1.581004
1.529000	1.525282
1.530000	1.680854
1.531000	1.805504
1.532000	1.868635
1.533000	1.966874
1.534000	2.060926
1.535000	2.164962
1.536000	2.032581
1.537000	1.669580
1.538000	1.386459
1.539000	1.278236
1.540000	1.207697
1.541000	1.207053
1.542000	1.212206
1.543000	1.206409
1.544000	1.217038
1.545000	1.229277
1.546000	1.183218
1.547000	1.068552
1.548000	0.975145
1.549000	1.024425
1.550000	1.130716
1.551000	1.452811
1.552000	1.987810
1.553000	2.318279
1.554000	2.367238
1.555000	2.260624
1.556000	2.020664
1.557000	1.944971
1.558000	1.790366
1.559000	1.570375
1.560000	1.556847
1.561000	1.603229
1.562000	1.670869
1.563000	1.512720
1.564000	1.156162
1.565000	0.912337
1.566000	0.868854
1.567000	0.917168
1.568000	1.128462
1.569000	1.536233
1.570000	1.954312
1.571000	2.085727
1.572000	2.017121
1.573000	1.882807
1.574000	1.682142
1.575000	1.473747
1.576000	1.328482
1.577000	1.284033
1.578000	1.321718
1.579000	1.313022
1.580000	1.232820
1.581000	1.178709
1.582000	1.183218
1.583000	1.282745
1.584000	1.403853
1.585000	1.544930
1.586000	1.649933
1.587000	1.734321
1.588000	1.862515
1.589000	1.980080
1.590000	2.087015
1.591000	2.099577
1.592000	2.047075
1.593000	1.910507
1.594000	1.750104
1.595000	1.662494
1.596000	1.649611
1.597000	1.655730
1.598000	1.800673
1.599000	2.057060
1.600000	2.278340
1.601000	2.387852
1.602000	2.378189
1.603000	2.309583
1.604000	2.316991
1.605000	2.262879
1.606000	2.184288
1.607000	2.076386
1.608000	1.982657
1.609000	1.866380
1.610000	1.724659
1.611000	1.618367
1.612000	1.586480
1.613000	1.497582
1.614000	1.379695
1.615000	1.273726
1.616000	1.175165
1.617000	1.109136
1.618000	1.174521
1.619000	1.262453
1.620000	1.319464
1.621000	1.229599
1.622000	1.042141
1.623000	0.830525
1.624000	0.683328
1.625000	0.659815
1.626000	0.724233
1.627000	0.950022
1.628000	1.281457
1.629000	1.652187
1.630000	1.899878
1.631000	2.020986
1.632000	1.963331
1.633000	2.003915
1.634000	2.170760
1.635000	2.266100
1.636000	2.288002
1.637000	2.154977
1.638000	1.835459
1.639000	1.430908
1.640000	1.150686
1.641000	1.091743
1.642000	1.126529
1.643000	1.231210
1.644000	1.502413
1.645000	1.686329
1.646000	1.721438
1.647000	1.626420
1.648000	1.634472
1.649000	1.819032
1.650000	1.987810
1.651000	2.175269
1.652000	2.240332
1.653000	2.145959
1.654000	2.048686
1.655000	1.884096
1.656000	1.546540
1.657000	1.257622
1.658000	1.071773
1.659000	1.000590
1.660000	0.963550
1.661000	0.908149
1.662000	0.958074
1.663000	1.106237
1.664000	1.278558
1.665000	1.568765
1.666000	1.972994
1.667000	2.179779
1.668000	2.269965
1.669000	2.304107
1.670000	2.251284
1.671000	2.192340
1.672000	2.134685
1.673000	2.109562
1.674000	1.981046
1.675000	1.856073
1.676000	1.801961
1.677000	1.734321
1.678000	1.646712
1.679000	1.576495
1.680000	1.651543
1.681000	1.774261
1.682000	1.718861
1.683000	1.685685
1.684000	1.691483
1.685000	1.716284
1.686000	1.695670
1.687000	1.609993
1.688000	1.555237
1.689000	1.509177
1.690000	1.568121
1.691000	1.619012
1.692000	1.643491
1.693000	1.688262
1.694000	1.593888
1.695000	1.538166
1.696000	1.453777
1.697000	1.444436
1.698000	1.589379
1.699000	1.669903
1.700000	1.585514
1.701000	1.451845
1.702000	1.466017
1.703000	1.511754
1.704000	1.555881
1.705000	1.402886
1.706000	1.153263
1.707000	0.950988
1.708000	0.856936
1.709000	0.853071
1.710000	0.949699
1.711000	1.122986
1.712000	1.368744
1.713000	1.550406
1.714000	1.655408
1.715000	1.777160
1.716000	1.812268
1.717000	1.804538
1.718000	1.770396
1.719000	1.771040
1.720000	1.671191
1.721000	1.588413
1.722000	1.566188
1.723000	1.461830
1.724000	1.344587
1.725000	1.314632
1.726000	1.291119
1.727000	1.347808
1.728000	1.488241
1.729000	1.616435
1.730000	1.630285
1.731000	1.597109
1.732000	1.571020
1.733000	1.649289
1.734000	1.755902
1.735000	1.711453
1.736000	1.747849
1.737000	1.757512
1.738000	1.842545
1.739000	2.036124
1.740000	2.302819
1.741000	2.420061
1.742000	2.425859
1.743000	2.367238
1.744000	2.254505
1.745000	2.135974
1.746000	1.925646
1.747000	1.565866
1.748000	1.134904
1.749000	0.857581
1.750000	0.676241
1.751000	0.653373
1.752000	0.650474
1.753000	0.781888
1.754000	1.189338
1.755000	1.714352
1.756000	2.039345
1.757000	2.243553
1.758000	2.311838
1.759000	2.363051
1.760000	2.405567
1.761000	2.466121
1.762000	2.484480
1.763000	2.436166
1.764000	2.272220
1.765000	2.018087
1.766000	1.761700
1.767000	1.583903
1.768000	1.525604
1.769000	1.399665
1.770000	1.257622
1.771000	1.122986
1.772000	1.097541
1.773000	1.103983
1.774000	1.179997
1.775000	1.437350
1.776000	1.615469
1.777000	1.684397
1.778000	1.540098
1.779000	1.365845
1.780000	1.232820
1.781000	1.135548
1.782000	0.927475
1.783000	0.796383
1.784000	0.858225
1.785000	1.096574
1.786000	1.406429
1.787000	1.646712
1.788000	1.977503
1.789000	2.124700
1.790000	1.971383
1.791000	1.808403
1.792000	1.709520
1.793000	1.657663
1.794000	1.706621
1.795000	1.757834
1.796000	1.752359
1.797000	1.652187
1.798000	1.590023
1.799000	1.615147
1.800000	1.714674
1.801000	1.882485
1.802000	2.034514
1.803000	2.070910
1.804000	1.934664
1.805000	1.774905
1.806000	1.769108
1.807000	1.804216
1.808000	1.734321
1.809000	1.579072
1.810000	1.420924
1.811000	1.294663
1.812000	1.205120
1.813000	1.242805
1.814000	1.316565
1.815000	1.365523
1.816000	1.456354
1.817000	1.507567
1.818000	1.588735
1.819000	1.606772
1.820000	1.537844
1.821000	1.437672
1.822000	1.409650
1.823000	1.423500
1.824000	1.514653
1.825000	1.760733
1.826000	2.014544
1.827000	2.176236
1.828000	2.234535
1.829000	2.119869
1.830000	1.872178
1.831000	1.518518
1.832000	1.338145
1.833000	1.322363
1.834000	1.341688
1.835000	1.426721
1.836000	1.444759
1.837000	1.496294
1.838000	1.506923
1.839000	1.409006
1.840000	1.339112
1.841000	1.367778
1.842000	1.389036
1.843000	1.336857
1.844000	1.300138
1.845000	1.342332
1.846000	1.446047
1.847000	1.626420
1.848000	1.813879
1.849000	1.741085
1.850000	1.569409
1.851000	1.414160
1.852000	1.376797
1.853000	1.526248
1.854000	1.943039
1.855000	2.259336
1.856000	2.394616
1.857000	2.433589
1.858000	2.382698
1.859000	2.239688
1.860000	2.027750
1.861000	1.927256
1.862000	1.737865
1.863000	1.614824
1.864000	1.416414
1.865000	1.217360
1.866000	1.028613
1.867000	0.916202
1.868000	0.851139
1.869000	0.836644
1.870000	0.967737
1.871000	1.189982
1.872000	1.387748
1.873000	1.456998
1.874000	1.479223
1.875000	1.448946
1.876000	1.425755
1.877000	1.386459
1.878000	1.378729
1.879000	1.557814
1.880000	1.772973
1.881000	1.874111
1.882000	1.835459
1.883000	1.778771
1.884000	1.795842
1.885000	1.744306
1.886000	1.549761
1.887000	1.483410
1.888000	1.579716
1.889000	1.666682
1.890000	1.705655
1.891000	1.733999
1.892000	1.658629
1.893000	1.486953
1.894000	1.343621
1.895000	1.292730
1.896000	1.297561
1.897000	1.432197
1.898000	1.657663
1.899000	1.819032
1.900000	1.750426
1.901000	1.668292
1.902000	1.578106
1.903000	1.638337
1.904000	1.758801
1.905000	1.920814
1.906000	1.981690
1.907000	1.970417
1.908000	1.860583
1.909000	1.638337
1.910000	1.506279
1.911000	1.483410
1.912000	1.554271
1.913000	1.755258
1.914000	1.947870
1.915000	2.075420
1.916000	2.029038
1.917000	1.848987
1.918000	1.663461
1.919000	1.583259
1.920000	1.590989
1.921000	1.646068
1.922000	1.733033
1.923000	1.712097
1.924000	1.640914
1.925000	1.418669
1.926000	1.219937
1.927000	1.096252
1.928000	1.081436
1.929000	1.149398
1.930000	1.253434
1.931000	1.422212
1.932000	1.485342
1.933000	1.485342
1.934000	1.495005
1.935000	1.485987
1.936000	1.502736
1.937000	1.551694
1.938000	1.487275
1.939000	1.375830
1.940000	1.303037
1.941000	1.289509
1.942000	1.310445
1.943000	1.436706
1.944000	1.625131
1.945000	1.675056
1.946000	1.526571
1.947000	1.383238
1.948000	1.316243
1.949000	1.324295
1.950000	1.418025
1.951000	1.825474
1.952000	2.189119
1.953000	2.324077
1.954000	2.350489
1.955000	2.300242
1.956000	2.146281
1.957000	1.824830
1.958000	1.549761
1.959000	1.309801
1.960000	1.178386
1.961000	1.166469
1.962000	1.182896
1.963000	1.225734
1.964000	1.241195
1.965000	1.259232
1.966000	1.336535
1.967000	1.436706
1.968000	1.641880
1.969000	1.866702
1.970000	1.957855
1.971000	2.046431
1.972000	2.147247
1.973000	2.247741
1.974000	2.304107
1.975000	2.202647
1.976000	2.043855
1.977000	1.896013
1.978000	1.752681
1.979000	1.538488
1.980000	1.344909
1.981000	1.144244
1.982000	1.018950
1.983000	0.934239
1.984000	0.931662
1.985000	1.064043
1.986000	1.412227
1.987000	1.921459
1.988000	2.200715
1.989000	2.201359
1.990000	2.028072
1.991000	1.849309
1.992000	1.667970
1.993000	1.572630
1.994000	1.549439
1.995000	1.529469
1.996000	1.481155
1.997000	1.451200
1.998000	1.375508
1.999000	1.297239
2.000000	1.266640
2.001000	1.379051
2.002000	1.537522
2.003000	1.671835
2.004000	1.699535
2.005000	1.678599
2.006000	1.614180
2.007000	1.533979
2.008000	1.493395
2.009000	1.529469
2.010000	1.407073
2.011000	1.321396
2.012000	1.282101
2.013000	1.303037
2.014000	1.314954
2.015000	1.304325
2.016000	1.286288
2.017000	1.297561
2.018000	1.349419
2.019000	1.401598
2.020000	1.486309
2.021000	1.632540
2.022000	1.804860
2.023000	1.876687
2.024000	1.878942
2.025000	1.877654
2.026000	1.836426
2.027000	1.753003
2.028000	1.704367
2.029000	1.727558
2.030000	1.673446
2.031000	1.594210
2.032000	1.508533
2.033000	1.412871
2.034000	1.436384
2.035000	1.554593
2.036000	1.725303
2.037000	1.804216
2.038000	1.869279
2.039000	1.831594
2.040000	1.657663
2.041000	1.500159
2.042000	1.423500
2.043000	1.402242
2.044000	1.453777
2.045000	1.479867
2.046000	1.397089
2.047000	1.280812
2.048000	1.319142
2.049000	1.455710
2.050000	1.614502
2.051000	1.912118
2.052000	2.248063
2.053000	2.401380
2.054000	2.484158
2.055000	2.494788
2.056000	2.494143
2.057000	2.496720
2.058000	2.423927
2.059000	2.062536
2.060000	1.459897
2.061000	1.088200
2.062000	0.971924
2.063000	0.893333
2.064000	0.878195
2.065000	0.916202
2.066000	0.940037
2.067000	0.957108
2.068000	0.972246
2.069000	1.092065
2.070000	1.239262
2.071000	1.378085
2.072000	1.623521
2.073000	1.978469
2.074000	2.106019
2.075000	2.008424
2.076000	1.802606
2.077000	1.581971
2.078000	1.395478
2.079000	1.304325
2.080000	1.210274
2.081000	1.145211
2.082000	1.117189
2.083000	1.158417
2.084000	1.334602
2.085000	1.503702
2.086000	1.565544
2.087000	1.663783
2.088000	1.822898
2.089000	1.877009
2.090000	1.839969
2.091000	1.830950
2.092000	1.882807
2.093000	1.825474
2.094000	1.642202
2.095000	1.473425
2.096000	1.333958
2.097000	1.253434
2.098000	1.205120
2.099000	1.228633
2.100000	1.206409
2.101000	1.131361
2.102000	1.162604
2.103000	1.325906
2.104000	1.526248
2.105000	1.666682
2.106000	1.776194
2.107000	1.864770
2.108000	1.829017
2.109000	1.746239
2.110000	1.758801
2.111000	1.810658
2.112000	1.811624
2.113000	1.738187
2.114000	1.676344
2.115000	1.675700
2.116000	1.846410
2.117000	2.063180
2.118000	2.134685
2.119000	2.203936
2.120000	2.234535
2.121000	2.082828
2.122000	1.884096
2.123000	1.770396
2.124000	1.709842
2.125000	1.862193
2.126000	1.995218
2.127000	1.983301
2.128000	1.984267
2.129000	1.949159
2.130000	1.897623
2.131000	1.762666
2.132000	1.476002
2.133000	1.300138
2.134000	1.190304
2.135000	1.151331
2.136000	1.212851
2.137000	1.218004
2.138000	1.202866
2.139000	1.150042
2.140000	1.086267
2.141000	1.025070
2.142000	1.031834
2.143000	1.088200
2.144000	1.121054
2.145000	1.235719
2.146000	1.369388
2.147000	1.508211
2.148000	1.572952
2.149000	1.628352
2.150000	1.724337
2.151000	1.804860
2.152000	1.880552
2.153000	1.924035
2.154000	1.928545
2.155000	1.962687
2.156000	1.994252
2.157000	1.931121
2.158000	1.745917
2.159000	1.534623
2.160000	1.412871
2.161000	1.446369
2.162000	1.673124
2.163000	2.004559
2.164000	2.170438
2.165000	2.153689
2.166000	1.991997
2.167000	1.719505
2.168000	1.484698
2.169000	1.323329
2.170000	1.170978
2.171000	1.140379
2.172000	1.140701
2.173000	1.139413
2.174000	1.158739
2.175000	1.197068
2.176000	1.254401
2.177000	1.331381
2.178000	1.437028
2.179000	1.650577
2.180000	1.757190
2.181000	1.706621
2.182000	1.642847
2.183000	1.434451
2.184000	1.185473
2.185000	1.131039
2.186000	1.170656
2.187000	1.245382
2.188000	1.317531
2.189000	1.321396
2.190000	1.286932
2.191000	1.265030
2.192000	1.402886
2.193000	1.596465
2.194000	1.771040
2.195000	1.958499
2.196000	2.175269
2.197000	2.321500
2.198000	2.372713
2.199000	2.316347
2.200000	2.157876
2.201000	2.063824
2.202000	1.861871
2.203000	1.630929
2.204000	1.474391
2.205000	1.467949
2.206000	1.712419
2.207000	1.853497
2.208000	1.842545
2.209000	1.855107
2.210000	1.792621
2.211000	1.655086
2.212000	1.547829
2.213000	1.514331
2.214000	1.633828
2.215000	1.961398
2.216000	2.288969
2.217000	2.371425
2.218000	2.307972
2.219000	2.021952
2.220000	1.674734
2.221000	1.393545
2.222000	1.257300
2.223000	1.202221
2.224000	1.241839
2.225000	1.291764
2.226000	1.327194
2.227000	1.392579
2.228000	1.408362
2.229000	1.361336
2.230000	1.313988
2.231000	1.322363
2.232000	1.365201
2.233000	1.319464
2.234000	1.280490
2.235000	1.299172
2.236000	1.325261
2.237000	1.390969
2.238000	1.383883
2.239000	1.308513
2.240000	1.161315
2.241000	1.078859
2.242000	1.124597
2.243000	1.226701
2.244000	1.318820
2.245000	1.385171
2.246000	1.550083
2.247000	1.757512
2.248000	1.824508
2.249000	1.731745
2.250000	1.586802
2.251000	1.436062
2.252000	1.477612
2.253000	1.555559
2.254000	1.694382
2.255000	1.983945
2.256000	2.121157
2.257000	2.199104
2.258000	2.154333
2.259000	2.157554
2.260000	2.071555
2.261000	1.916305
2.262000	1.794231
2.263000	1.609027
2.264000	1.363913
2.265000	1.218648
2.266000	1.322685
2.267000	1.456032
2.268000	1.562323
2.269000	1.643169
2.270000	1.758801
2.271000	1.963009
2.272000	2.006492
2.273000	1.896335
2.274000	1.903421
2.275000	1.909219
2.276000	1.972027
2.277000	2.047075
2.278000	1.812590
2.279000	1.498226
2.280000	1.314954
2.281000	1.247315
2.282000	1.248281
2.283000	1.219615
2.284000	1.198678
2.285000	1.307546
2.286000	1.386782
2.287000	1.504024
2.288000	1.666682
2.289000	1.688906
2.290000	1.817422
2.291000	1.893114
2.292000	1.915661
2.293000	1.887961
2.294000	1.826118
2.295000	1.785212
2.296000	1.748494
2.297000	1.704045
2.298000	1.704367
2.299000	1.667970
2.300000	1.613858
2.301000	1.490174
2.302000	1.336857
2.303000	1.191914
2.304000	1.076605
2.305000	1.049871
2.306000	1.137803
2.307000	1.302071
2.308000	1.483410
2.309000	1.471492
2.310000	1.333958
2.311000	1.243772
2.312000	1.199645
2.313000	1.078859
2.314000	0.972568
2.315000	0.932628
2.316000	0.989961
2.317000	1.186117
2.318000	1.584870
2.319000	2.071555
2.320000	2.383343
2.321000	2.430691
2.322000	2.410077
2.323000	2.345657
2.324000	2.244198
2.325000	2.131142
2.326000	2.112783
2.327000	2.202647
2.328000	2.183644
2.329000	2.013256
2.330000	1.845122
2.331000	1.992641
2.332000	2.233891
2.333000	2.248385
2.334000	2.048686
2.335000	1.654120
2.336000	1.213173
2.337000	0.885603
2.338000	0.720368
2.339000	0.689125
2.340000	0.838899
2.341000	1.192559
2.342000	1.645745
2.343000	1.903099
2.344000	1.890215
2.345000	1.725947
2.346000	1.500481
2.347000	1.350063
2.348000	1.217038
2.349000	1.259876
2.350000	1.325584
2.351000	1.443148
2.352000	1.608383
2.353000	1.766853
2.354000	1.820965
2.355000	1.774261
2.356000	1.670547
2.357000	1.699857
2.358000	1.920492
2.359000	2.046109
2.360000	2.001982
2.361000	1.913728
2.362000	1.896013
2.363000	1.982334
2.364000	1.918560
2.365000	1.831272
2.366000	1.586158
2.367000	1.288543
2.368000	1.082724
2.369000	0.994148
2.370000	1.038597
2.371000	1.261165
2.372000	1.410939
2.373000	1.415448
2.374000	1.421890
2.375000	1.540743
2.376000	1.745917
2.377000	1.831916
2.378000	1.696636
2.379000	1.487597
2.380000	1.357471
2.381000	1.346842
2.382000	1.476002
2.383000	1.744629
2.384000	1.971061
2.385000	2.148857
2.386000	2.297021
2.387000	2.294766
2.388000	2.288969
2.389000	2.144670
2.390000	2.045143
2.391000	1.735288
2.392000	1.358437
2.393000	1.237974
2.394000	1.207375
2.395000	1.168402
2.396000	1.189338
2.397000	1.298850
2.398000	1.431231
2.399000	1.450556
2.400000	1.320108
2.401000	1.208985
2.402000	1.133293
2.403000	1.154551
2.404000	1.217038
2.405000	1.288865
2.406000	1.678277
2.407000	2.074131
2.408000	2.255471
2.409000	2.167539
2.410000	1.916627
2.411000	1.619012
2.412000	1.332348
2.413000	0.986740
2.414000	0.831491
2.415000	0.873041
2.416000	1.077893
2.417000	1.292408
2.418000	1.397089
2.419000	1.463762
2.420000	1.624165
2.421000	1.772007
2.422000	1.889893
2.423000	1.936919
2.424000	1.761700
2.425000	1.650899
2.426000	1.755580
2.427000	1.975570
2.428000	2.121801
2.429000	2.183322
2.430000	2.237756
2.431000	2.341470
2.432000	2.384631
2.433000	2.392039
2.434000	2.380122
2.435000	2.163352
2.436000	1.726591
2.437000	1.306580
2.438000	1.039242
2.439000	0.984486
2.440000	1.131039
2.441000	1.459253
2.442000	1.772329
2.443000	1.890215
2.444000	1.918560
2.445000	1.952380
2.446000	2.003915
2.447000	1.781347
2.448000	1.423822
2.449000	1.182574
2.450000	1.055024
2.451000	1.034088
2.452000	1.043429
2.453000	1.059856
2.454000	1.100118
2.455000	1.136836
2.456000	1.104305
2.457000	1.089488
2.458000	1.208341
2.459000	1.350707
2.460000	1.411583
2.461000	1.407396
2.462000	1.455066
2.463000	1.431875
2.464000	1.246348
2.465000	1.055346
2.466000	0.958074
2.467000	0.975467
2.468000	1.085945
2.469000	1.358759
2.470000	1.698891
2.471000	2.030971
2.472000	2.355965
2.473000	2.428436
2.474000	2.438743
2.475000	2.430046
2.476000	2.424571
2.477000	2.480615
2.478000	2.475140
2.479000	2.316025
2.480000	1.831916
2.481000	1.318175
2.482000	1.151975
2.483000	1.165181
2.484000	1.601296
2.485000	2.326332
2.486000	2.495432
2.487000	2.494143
2.488000	2.452915
2.489000	2.113427
2.490000	1.465373
2.491000	1.005100
2.492000	0.820218
2.493000	0.753866
2.494000	0.755477
2.495000	0.825371
2.496000	0.855004
2.497000	0.874007
2.498000	0.903962
2.499000	0.986418
2.500000	1.168724
2.501000	1.477612
2.502000	1.905998
2.503000	2.390751
2.504000	2.485769
2.505000	2.466443
2.506000	2.374324
2.507000	2.103442
2.508000	1.725625
2.509000	1.497260
2.510000	1.426077
2.511000	1.288543
2.512000	1.200611
2.513000	1.205764
2.514000	1.313344
2.515000	1.298850
2.516000	1.304003
2.517000	1.522705
2.518000	1.737865
2.519000	1.802606
2.520000	1.704689
2.521000	1.510144
2.522000	1.379051
2.523000	1.417058
2.524000	1.842223
2.525000	2.286070
2.526000	2.328586
2.527000	2.184610
2.528000	1.954312
2.529000	1.622877
2.530000	1.201899
2.531000	0.927153
2.532000	0.783499
2.533000	0.745492
2.534000	0.814420
2.535000	0.972890
2.536000	1.203510
2.537000	1.474069
2.538000	1.743662
2.539000	1.871534
2.540000	1.925324
2.541000	2.133719
2.542000	2.353710
2.543000	2.394294
2.544000	2.354998
2.545000	2.134041
2.546000	1.942073
2.547000	1.773939
2.548000	1.498548
2.549000	1.469238
2.550000	1.583259
2.551000	1.738509
2.552000	1.836103
2.553000	1.866380
2.554000	1.840935
2.555000	1.732711
2.556000	1.582937
2.557000	1.426721
2.558000	1.332992
2.559000	1.263097
2.560000	1.253757
2.561000	1.241839
2.562000	1.211562
2.563000	1.258266
2.564000	1.432841
2.565000	1.743662
2.566000	2.012611
2.567000	2.134685
2.568000	1.977181
2.569000	1.743984
2.570000	1.429620
2.571000	1.122342
2.572000	0.960006
2.573000	0.906217
2.574000	0.975789
2.575000	1.090777
2.576000	1.188693
2.577000	1.242161
2.578000	1.328805
2.579000	1.636083
2.580000	2.260302
2.581000	2.492855
2.582000	2.774044
2.583000	2.771467
2.584000	2.770179
2.585000	2.489312
2.586000	2.242587
2.587000	1.478256
2.588000	1.039242
2.589000	0.851783
2.590000	0.811843
2.591000	0.860479
2.592000	0.960651
2.593000	1.235075
2.594000	1.461507
2.595000	1.293374
2.596000	1.125241
2.597000	1.079826
2.598000	1.093031
2.599000	1.244738
2.600000	1.725947
2.601000	2.184288
2.602000	2.202325
2.603000	2.027106
2.604000	1.802283
2.605000	1.705011
2.606000	1.772651
2.607000	1.780059
2.608000	1.774905
2.609000	1.925324
2.610000	1.967196
2.611000	1.900200
2.612000	1.705011
2.613000	1.511432
2.614000	1.262131
2.615000	1.141346
2.616000	1.102694
2.617000	1.087234
2.618000	1.146499
2.619000	1.247637
2.620000	1.411583
2.621000	1.594532
2.622000	1.693738
2.623000	1.758156
2.624000	1.944327
2.625000	2.091202
2.626000	2.066723
2.627000	1.810658
2.628000	1.487919
2.629000	1.351995
2.630000	1.310445
2.631000	1.334602
2.632000	1.393868
2.633000	1.307546
2.634000	1.341688
2.635000	1.339112
2.636000	1.297239
2.637000	1.390969
2.638000	1.513687
2.639000	1.564900
2.640000	1.814201
2.641000	1.915983
2.642000	1.770396
2.643000	1.712419
2.644000	1.736576
2.645000	1.839002
2.646000	1.982012
2.647000	2.065113
2.648000	2.247419
2.649000	2.395904
2.650000	2.367560
2.651000	2.316347
2.652000	1.887316
2.653000	1.504990
2.654000	1.303681
2.655000	1.281779
2.656000	1.290475
2.657000	1.145211
2.658000	0.888179
2.659000	0.764495
2.660000	0.812809
2.661000	0.997692
2.662000	1.358759
2.663000	1.793909
2.664000	2.071877
2.665000	2.343081
2.666000	2.387530
2.667000	2.369815
2.668000	2.267066
2.669000	2.193629
2.670000	2.233246
2.671000	2.122768
2.672000	1.927256
2.673000	1.703078
2.674000	1.477612
2.675000	1.276947
2.676000	1.147465
2.677000	1.076927
2.678000	1.008965
2.679000	0.959040
2.680000	1.001557
2.681000	1.060178
2.682000	1.154551
2.683000	1.316565
2.684000	1.415126
2.685000	1.463440
2.686000	1.447657
2.687000	1.542031
2.688000	1.798740
2.689000	2.267388
2.690000	2.396871
2.691000	2.384953
2.692000	2.166251
2.693000	1.829017
2.694000	1.527859
2.695000	1.279202
2.696000	1.130716
2.697000	1.053092
2.698000	1.107848
2.699000	1.360048
2.700000	1.862837
2.701000	2.132753
2.702000	2.256115
2.703000	2.343403
2.704000	2.395260
2.705000	2.397837
2.706000	2.201359
2.707000	1.917271
2.708000	1.786823
2.709000	1.447657
2.710000	1.187405
2.711000	1.080470
2.712000	1.017017
2.713000	0.964838
2.714000	0.978688
2.715000	1.004456
2.716000	1.065653
2.717000	1.074672
2.718000	1.055346
2.719000	1.139091
2.720000	1.289831
2.721000	1.506923
2.722000	1.869601
2.723000	1.985555
2.724000	1.947226
2.725000	1.788433
2.726000	1.333636
2.727000	1.034410
2.728000	1.002523
2.729000	1.166469
2.730000	1.471170
2.731000	1.770718
2.732000	1.935953
2.733000	1.856395
2.734000	1.687940
2.735000	1.663783
2.736000	1.683753
2.737000	1.681176
2.738000	1.838036
2.739000	1.888283
2.740000	1.875077
2.741000	1.786501
2.742000	1.680854
2.743000	1.590345
2.744000	1.463762
2.745000	1.329449
2.746000	1.317853
2.747000	1.520451
2.748000	2.081540
2.749000	2.418129
2.750000	2.473851
2.751000	2.431013
2.752000	2.185898
2.753000	1.730134
2.754000	1.507245
2.755000	1.353606
2.756000	1.282423
2.757000	1.223158
2.758000	1.129750
2.759000	1.095608
2.760000	1.131039
2.761000	1.288865
2.762000	1.724659
2.763000	1.980402
2.764000	1.878942
2.765000	1.814523
2.766000	1.742374
2.767000	1.577784
2.768000	1.527215
2.769000	1.330737
2.770000	1.147143
2.771000	1.021849
2.772000	1.024103
2.773000	1.093676
2.774000	1.153263
2.775000	1.157450
2.776000	1.212528
2.777000	1.391613
2.778000	1.735288
2.779000	2.147247
2.780000	2.379800
2.781000	2.431013
2.782000	2.444863
2.783000	2.437455
2.784000	2.356931
2.785000	2.141449
2.786000	1.863804
2.787000	1.595821
2.788000	1.316243
2.789000	1.125241
2.790000	0.994471
2.791000	0.855004
2.792000	0.748713
2.793000	0.697178
2.794000	0.723267
2.795000	0.880127
2.796000	1.273404
2.797000	1.866380
2.798000	2.221329
2.799000	2.292834
2.800000	2.234213
2.801000	2.111172
2.802000	2.078641
2.803000	2.059637
2.804000	1.963009
2.805000	1.884096
2.806000	1.867024
2.807000	1.888927
2.808000	1.843189
2.809000	1.690839
2.810000	1.499515
2.811000	1.415448
2.812000	1.351351
2.813000	1.496938
2.814000	1.553304
2.815000	1.645101
2.816000	1.799385
2.817000	1.902455
2.818000	1.958177
2.819000	1.990387
2.820000	1.788755
2.821000	1.928545
2.822000	2.329231
2.823000	2.407822
2.824000	2.393650
2.825000	2.229059
2.826000	1.847699
2.827000	1.363591
2.828000	1.097219
2.829000	1.088522
2.830000	1.175810
2.831000	1.303681
2.832000	1.405463
2.833000	1.442504
2.834000	1.378085
2.835000	1.302071
2.836000	1.174521
2.837000	1.142956
2.838000	1.233465
2.839000	1.280490
2.840000	1.214783
2.841000	1.079503
2.842000	0.978044
2.843000	0.927153
2.844000	0.931662
2.845000	1.085301
2.846000	1.270183
2.847000	1.487275
2.848000	1.534301
2.849000	1.495972
2.850000	1.673446
2.851000	2.029360
2.852000	2.313448
2.853000	2.386564
2.854000	2.385597
2.855000	2.352421
2.856000	2.227771
2.857000	2.132753
2.858000	2.124056
2.859000	1.898912
2.860000	1.563289
2.861000	1.305292
2.862000	1.296595
2.863000	1.297239
2.864000	1.346198
2.865000	1.467627
2.866000	1.525604
2.867000	1.692449
2.868000	1.670547
2.869000	1.502736
2.870000	1.388392
2.871000	1.254079
2.872000	1.132971
2.873000	1.096897
2.874000	1.216394
2.875000	1.423178
2.876000	1.608705
2.877000	1.951091
2.878000	2.342759
2.879000	2.447762
2.880000	2.435844
2.881000	2.241943
2.882000	1.790044
2.883000	1.318820
2.884000	0.991572
2.885000	0.838899
2.886000	0.851139
2.887000	0.922321
2.888000	0.926831
2.889000	0.954531
2.890000	1.023137
2.891000	1.186761
2.892000	1.478901
2.893000	1.959144
2.894000	2.377545
2.895000	2.452271
2.896000	2.425215
2.897000	2.334384
2.898000	2.205224
2.899000	2.041922
2.900000	1.873788
2.901000	1.636083
2.902000	1.418669
2.903000	1.246993
2.904000	1.207375
2.905000	1.237652
2.906000	1.381950
2.907000	1.479545
2.908000	1.624809
2.909000	1.766531
2.910000	1.781669
2.911000	1.840613
2.912000	2.006814
2.913000	2.017121
2.914000	1.707588
2.915000	1.301104
2.916000	1.133937
2.917000	1.151653
2.918000	1.226056
2.919000	1.398699
2.920000	1.495649
2.921000	1.418669
2.922000	1.376797
2.923000	1.558780
2.924000	2.040634
2.925000	2.300242
2.926000	2.220040
2.927000	2.166251
2.928000	1.825152
2.929000	1.391291
2.930000	1.188049
2.931000	1.193847
2.932000	1.481477
2.933000	1.703723
2.934000	1.605162
2.935000	1.469560
2.936000	1.344587
2.937000	1.290475
2.938000	1.300138
2.939000	1.342655
2.940000	1.393545
2.941000	1.434129
2.942000	1.398699
2.943000	1.433807
2.944000	1.508855
2.945000	1.629963
2.946000	1.750104
2.947000	1.811624
2.948000	1.739475
2.949000	1.660240
2.950000	1.541065
2.951000	1.429298
2.952000	1.330093
2.953000	1.264708
2.954000	1.305936
2.955000	1.623843
2.956000	1.919526
2.957000	1.957211
2.958000	1.784568
2.959000	1.557169
2.960000	1.368744
2.961000	1.166147
2.962000	1.117511
2.963000	1.186439
2.964000	1.216071
2.965000	1.285322
2.966000	1.412871
2.967000	1.500481
2.968000	1.616757
2.969000	1.697281
2.970000	2.039345
2.971000	2.381088
2.972000	2.444863
2.973000	2.443574
2.974000	2.322145
2.975000	1.901489
2.976000	1.419635
2.977000	1.173233
2.978000	1.163248
2.979000	1.422534
2.980000	1.699535
2.981000	1.882163
2.982000	1.940462
2.983000	1.854463
2.984000	1.949803
2.985000	1.989743
2.986000	2.020664
2.987000	1.864126
2.988000	1.650899
2.989000	1.438317
2.990000	1.376152
2.991000	1.350385
2.992000	1.270505
2.993000	1.176132
2.994000	1.140057
2.995000	1.187083
2.996000	1.280490
2.997000	1.273082
2.998000	1.308835
2.999000	1.283711
3.000000	1.192236
3.001000	1.076283
3.002000	1.009931
3.003000	1.015085
3.004000	1.089810
3.005000	1.296917
3.006000	1.523994
3.007000	1.635116
3.008000	1.614824
3.009000	1.573274
3.010000	1.541065
3.011000	1.495005
3.012000	1.618367
3.013000	1.749138
3.014000	1.769430
3.015000	1.822253
3.016000	1.915983
3.017000	2.187831
3.018000	2.428114
3.019000	2.472563
3.020000	2.495432
3.021000	2.461934
3.022000	2.412653
3.023000	2.200071
3.024000	1.785212
3.025000	1.412227
3.026000	1.152619
3.027000	0.999946
3.028000	0.930052
3.029000	0.928763
3.030000	0.998658
3.031000	1.317531
3.032000	1.884740
3.033000	2.244520
3.034000	2.335028
3.035000	2.271576
3.036000	2.096034
3.037000	1.785212
3.038000	1.391935
3.039000	1.109780
3.040000	0.968381
3.041000	0.940359
3.042000	1.074028
3.043000	1.259876
3.044000	1.313666
3.045000	1.314632
3.046000	1.354894
3.047000	1.439927
3.048000	1.595499
3.049000	1.785857
3.050000	1.909541
3.051000	1.996829
3.052000	2.115360
3.053000	2.123090
3.054000	2.074776
3.055000	1.977503
3.056000	1.781025
3.057000	1.600008
3.058000	1.554593
3.059000	1.619012
3.060000	1.696959
3.061000	1.645423
3.062000	1.525282
3.063000	1.409006
3.064000	1.277592
3.065000	1.181929
3.066000	1.071773
3.067000	1.094642
3.068000	1.212206
3.069000	1.307546
3.070000	1.300460
3.071000	1.234753
3.072000	1.153263
3.073000	1.058567
3.074000	1.110102
3.075000	1.313022
3.076000	1.685685
3.077000	1.844478
3.078000	1.591956
3.079000	1.246670
3.080000	1.086912
3.081000	1.107526
3.082000	1.262131
3.083000	1.705333
3.084000	2.275763
3.085000	2.415230
3.086000	2.343725
3.087000	2.369493
3.088000	2.418773
3.089000	2.392683
3.090000	2.243231
3.091000	1.955923
3.092000	1.741408
3.093000	1.619656
3.094000	1.597753
3.095000	1.562645
3.096000	1.563289
3.097000	1.628352
3.098000	1.790366
3.099000	1.853174
3.100000	1.884096
3.101000	1.886350
3.102000	1.922747
3.103000	1.919204
3.104000	1.777482
3.105000	1.621588
3.106000	1.501769
3.107000	1.424467
3.108000	1.349741
3.109000	1.232176
3.110000	1.119443
3.111000	1.059856
3.112000	1.095930
3.113000	1.197390
3.114000	1.320430
3.115000	1.433163
3.116000	1.399021
3.117000	1.241839
3.118000	1.086267
3.119000	1.002201
3.120000	1.094320
3.121000	1.437350
3.122000	1.741408
3.123000	1.961076
3.124000	2.164318
3.125000	2.260624
3.126000	2.316669
3.127000	2.376579
3.128000	2.367882
3.129000	2.153045
3.130000	1.913728
3.131000	1.911474
3.132000	1.991031
3.133000	1.968162
3.134000	1.900200
3.135000	1.720471
3.136000	1.535911
3.137000	1.681498
3.138000	1.965585
3.139000	1.679888
3.140000	1.196102
3.141000	0.944868
3.142000	0.851461
3.143000	0.853071
3.144000	0.901385
3.145000	1.061788
3.146000	1.368744
3.147000	1.458931
3.148000	1.333314
3.149000	1.238618
3.150000	1.328160
3.151000	1.558780
3.152000	1.653154
3.153000	1.602263
3.154000	1.496938
3.155000	1.438961
3.156000	1.466017
3.157000	1.393868
3.158000	1.308513
3.159000	1.309479
3.160000	1.372931
3.161000	1.410939
3.162000	1.487597
3.163000	1.523672
3.164000	1.454099
3.165000	1.394834
3.166000	1.394190
3.167000	1.471492
3.168000	1.668614
3.169000	1.828695
3.170000	1.954634
3.171000	2.027428
3.172000	2.045143
3.173000	2.012611
3.174000	2.068656
3.175000	2.019697
3.176000	1.933376
3.177000	1.858328
3.178000	1.725625
3.179000	1.523672
3.180000	1.341366
3.181000	1.186761
3.182000	1.238940
3.183000	1.558458
3.184000	2.036768
3.185000	2.336639
3.186000	2.415552
3.187000	2.362084
3.188000	2.202003
3.189000	2.007780
3.190000	1.931121
3.191000	1.930799
3.192000	1.858650
3.193000	1.767819
3.194000	1.641236
3.195000	1.541709
3.196000	1.402886
3.197000	1.203188
3.198000	1.025714
3.199000	0.891078
3.200000	0.862734
3.201000	0.903318
3.202000	0.966126
3.203000	1.041818
3.204000	1.156484
3.205000	1.475680
3.206000	1.958499
3.207000	2.287680
3.208000	2.290257
3.209000	2.052873
3.210000	1.786823
3.211000	1.553626
3.212000	1.296917
3.213000	1.116866
3.214000	1.000590
3.215000	1.003489
3.216000	1.157128
3.217000	1.495649
3.218000	1.843512
3.219000	1.848665
3.220000	1.547829
3.221000	1.120409
3.222000	0.948733
3.223000	0.977077
3.224000	1.151331
3.225000	1.484698
3.226000	1.924035
3.227000	2.241943
3.228000	2.238078
3.229000	2.088948
3.230000	1.978147
3.231000	2.014866
3.232000	2.158520
3.233000	2.168505
3.234000	2.172048
3.235000	2.240977
3.236000	2.268677
3.237000	2.159809
3.238000	1.984267
3.239000	1.815811
3.240000	1.658951
3.241000	1.415126
3.242000	1.274693
3.243000	1.190948
3.244000	1.236686
3.245000	1.361658
3.246000	1.417703
3.247000	1.477934
3.248000	1.624487
3.249000	1.632218
3.250000	1.526571
3.251000	1.368100
3.252000	1.301104
3.253000	1.333636
3.254000	1.368744
3.255000	1.390969
3.256000	1.446047
3.257000	1.528825
3.258000	1.750104
3.259000	1.923391
3.260000	2.142416
3.261000	2.098289
3.262000	1.721116
3.263000	1.407718
3.264000	1.300782
3.265000	1.229277
3.266000	1.372287
3.267000	1.539776
3.268000	1.571986
3.269000	1.453133
3.270000	1.314954
3.271000	1.202866
3.272000	1.127818
3.273000	1.121054
3.274000	1.149398
3.275000	1.220581
3.276000	1.276625
3.277000	1.349096
3.278000	1.498226
3.279000	1.630285
3.280000	1.699213
3.281000	1.748494
3.282000	1.811946
3.283000	1.790044
3.284000	1.783280
3.285000	1.797130
3.286000	1.728202
3.287000	1.671835
3.288000	1.653476
3.289000	1.811302
3.290000	1.917915
3.291000	1.714352
3.292000	1.496616
3.293000	1.358437
3.294000	1.294985
3.295000	1.407073
3.296000	1.664105
3.297000	1.904387
3.298000	2.030327
3.299000	2.030004
3.300000	1.994252
3.301000	1.933054
3.302000	1.836426
3.303000	1.728202
3.304000	1.642202
3.305000	1.683753
3.306000	1.719505
3.307000	1.533657
3.308000	1.401598
3.309000	1.319786
3.310000	1.320108
3.311000	1.311411
3.312000	1.232498
3.313000	1.201899
3.314000	1.193847
3.315000	1.146499
3.316000	1.111069
3.317000	1.060178
3.318000	1.055668
3.319000	1.092387
3.320000	1.211240
3.321000	1.387104
3.322000	1.610959
3.323000	1.842223
3.324000	1.962042
3.325000	1.921459
3.326000	1.991997
3.327000	2.012289
3.328000	1.986200
3.329000	2.056738
3.330000	2.195883
3.331000	2.288647
3.332000	2.387852
3.333000	2.422316
3.334000	2.378511
3.335000	2.321178
3.336000	2.311193
3.337000	2.307972
3.338000	2.297343
3.339000	1.975893
3.340000	1.480189
3.341000	1.055668
3.342000	0.881738
3.343000	0.873685
3.344000	0.892367
3.345000	0.831169
3.346000	0.875940
3.347000	1.046006
3.348000	1.210596
3.349000	1.420279
3.350000	1.473103
3.351000	1.372609
3.352000	1.333958
3.353000	1.303359
3.354000	1.353606
3.355000	1.449912
3.356000	1.550728
3.357000	1.635116
3.358000	1.700179
3.359000	1.942073
3.360000	2.188153
3.361000	2.305074
3.362000	2.147247
3.363000	1.866380
3.364000	1.573596
3.365000	1.311411
3.366000	1.325261
3.367000	1.384205
3.368000	1.503702
3.369000	1.712419
3.370000	1.841579
3.371000	1.762022
3.372000	1.569731
3.373000	1.446047
3.374000	1.376474
3.375000	1.418669
3.376000	1.477290
3.377000	1.401276
3.378000	1.252468
3.379000	1.227023
3.380000	1.194491
3.381000	1.093031
3.382000	1.052448
3.383000	1.158417
3.384000	1.411583
3.385000	1.695026
3.386000	2.101187
3.387000	2.365949
3.388000	2.426503
3.389000	2.451949
3.390000	2.409754
3.391000	2.145636
3.392000	1.533657
3.393000	0.959684
3.394000	0.734863
3.395000	0.696855
3.396000	0.776091
3.397000	0.953243
3.398000	1.237974
3.399000	1.688906
3.400000	1.946260
3.401000	2.003915
3.402000	1.823542
3.403000	1.445725
3.404000	1.160671
3.405000	1.113968
3.406000	1.297883
3.407000	1.844156
3.408000	2.315703
3.409000	2.418129
3.410000	2.430691
3.411000	2.360796
3.412000	2.250962
3.413000	2.221973
3.414000	2.140161
3.415000	1.981046
3.416000	1.906964
3.417000	1.843834
3.418000	1.770074
3.419000	1.655730
3.420000	1.562001
3.421000	1.552982
3.422000	1.644135
3.423000	1.661850
3.424000	1.822898
3.425000	2.126955
3.426000	2.159487
3.427000	1.953668
3.428000	1.669580
3.429000	1.217038
3.430000	0.984486
3.431000	0.832457
3.432000	0.781566
3.433000	0.845985
3.434000	1.019594
3.435000	1.319142
3.436000	1.646068
3.437000	1.777804
3.438000	1.839002
3.439000	1.823542
3.440000	1.801639
3.441000	1.793265
3.442000	1.664105
3.443000	1.455066
3.444000	1.191270
3.445000	0.969025
3.446000	0.895910
3.447000	1.031189
3.448000	1.395478
3.449000	1.966552
3.450000	2.273186
3.451000	2.299920
3.452000	2.225838
3.453000	1.953024
3.454000	1.594210
3.455000	1.373254
3.456000	1.006388
3.457000	0.746136
3.458000	0.692024
3.459000	0.704264
3.460000	0.763207
3.461000	0.966448
3.462000	1.455066
3.463000	2.186865
3.464000	2.424893
3.465000	2.420061
3.466000	2.350167
3.467000	2.259658
3.468000	2.277695
3.469000	2.181711
3.470000	1.978791
3.471000	1.775228
3.472000	1.509177
3.473000	1.320752
3.474000	1.170978
3.475000	1.091099
3.476000	1.069841
3.477000	1.120732
3.478000	1.370677
3.479000	1.730456
3.480000	1.937563
3.481000	2.028716
3.482000	2.050941
3.483000	2.105375
3.484000	2.099255
3.485000	2.013900
3.486000	1.884740
3.487000	1.731423
3.488000	1.511432
3.489000	1.388392
3.490000	1.324617
3.491000	1.352639
3.492000	1.467305
3.493000	1.490496
3.494000	1.494683
3.495000	1.547507
3.496000	1.694060
3.497000	1.733033
3.498000	1.562967
3.499000	1.403530
3.500000	1.404175
3.501000	1.504668
3.502000	1.698569
3.503000	1.863804
3.504000	2.006169
3.505000	2.157876
3.506000	2.171082
3.507000	2.146281
3.508000	2.044821
3.509000	1.911796
3.510000	1.736576
3.511000	1.568765
3.512000	1.506279
3.513000	1.582937
3.514000	1.663783
3.515000	1.445403
3.516000	1.132327
3.517000	0.929085
3.518000	0.783177
3.519000	0.703942
3.520000	0.677208
3.521000	0.785431
3.522000	1.084979
3.523000	1.517552
3.524000	1.995218
3.525000	2.313126
3.526000	2.363051
3.527000	2.263201
3.528000	2.049330
3.529000	1.778448
3.530000	1.664749
3.531000	1.777160
3.532000	1.981046
3.533000	2.010679
3.534000	1.882807
3.535000	1.514331
3.536000	1.178709
3.537000	0.919745
3.538000	0.816997
3.539000	0.800248
3.540000	0.887857
3.541000	1.123952
3.542000	1.416736
3.543000	1.704689
3.544000	1.872822
3.545000	1.889249
3.546000	1.874111
3.547000	1.858972
3.548000	1.818388
3.549000	1.869279
3.550000	1.752037
3.551000	1.442182
3.552000	1.218648
3.553000	1.095286
3.554000	1.148754
3.555000	1.315277
3.556000	1.577784
3.557000	2.061892
3.558000	2.341792
3.559000	2.348878
3.560000	2.347268
3.561000	2.425215
3.562000	2.477716
3.563000	2.489312
3.564000	2.498008
3.565000	2.455492
3.566000	2.343081
3.567000	2.246130
3.568000	2.250962
3.569000	2.277051
3.570000	2.284782
3.571000	2.102476
3.572000	1.896013
3.573000	1.622555
3.574000	1.268251
3.575000	1.031834
3.576000	0.899131
3.577000	0.804757
3.578000	0.825371
3.579000	1.000268
3.580000	1.290153
3.581000	1.464084
3.582000	1.297239
3.583000	1.167435
3.584000	1.076605
3.585000	1.049871
3.586000	1.033766
3.587000	1.038597
3.588000	1.055991
3.589000	1.011219
3.590000	0.997369
3.591000	0.964194
3.592000	0.898486
3.593000	0.875940
3.594000	0.906217
3.595000	1.032478
3.596000	1.296273
3.597000	1.686007
3.598000	1.923391
3.599000	1.990709
3.600000	2.099577
3.601000	2.195561
3.602000	2.287680
3.603000	2.223261
3.604000	1.908575
3.605000	1.615147
3.606000	1.458286
3.607000	1.578428
3.608000	1.707910
3.609000	1.858650
3.610000	1.984589
3.611000	2.016154
3.612000	1.920814
3.613000	1.774261
3.614000	1.618045
3.615000	1.484698
3.616000	1.558780
3.617000	1.794553
3.618000	1.944005
3.619000	1.980402
3.620000	1.928867
3.621000	1.798418
3.622000	1.652832
3.623000	1.575529
3.624000	1.554915
3.625000	1.500159
3.626000	1.361336
3.627000	1.282423
3.628000	1.231854
3.629000	1.265352
3.630000	1.361658
3.631000	1.712741
3.632000	2.277695
3.633000	2.380766
3.634000	2.154011
3.635000	1.753969
3.636000	1.438317
3.637000	1.214783
3.638000	1.202544
3.639000	1.274693
3.640000	1.517230
3.641000	1.762988
3.642000	1.954956
3.643000	2.042566
3.644000	2.027428
3.645000	1.948514
3.646000	1.699535
3.647000	1.309801
3.648000	1.036343
3.649000	0.937782
3.650000	1.041818
3.651000	1.278880
3.652000	1.692771
3.653000	1.847699
3.654000	1.810658
3.655000	1.640270
3.656000	1.551050
3.657000	1.597109
3.658000	1.621266
3.659000	1.554593
3.660000	1.444436
3.661000	1.410616
3.662000	1.381306
3.663000	1.401598
3.664000	1.338145
3.665000	1.240551
3.666000	1.255045
3.667000	1.326550
3.668000	1.441538
3.669000	1.725625
3.670000	1.981690
3.671000	2.033870
3.672000	1.988776
3.673000	1.853819
3.674000	1.714352
3.675000	1.699535
3.676000	1.686329
3.677000	1.556847
3.678000	1.452489
3.679000	1.327194
3.680000	1.275337
3.681000	1.311089
3.682000	1.300138
3.683000	1.290797
3.684000	1.312056
3.685000	1.361658
3.686000	1.499515
3.687000	1.723370
3.688000	1.868635
3.689000	2.079285
3.690000	2.103764
3.691000	1.850920
3.692000	1.610637
3.693000	1.440571
3.694000	1.186761
3.695000	1.150364
3.696000	1.148754
3.697000	1.142634
3.698000	1.190948
3.699000	1.296595
3.700000	1.500159
3.701000	1.915661
3.702000	2.390751
3.703000	2.480615
3.704000	2.460001
3.705000	2.410077
3.706000	2.369170
3.707000	2.169149
3.708000	1.740763
3.709000	1.624809
3.710000	1.614824
3.711000	1.553949
3.712000	1.623521
3.713000	1.644779
3.714000	1.545896
3.715000	1.414160
3.716000	1.274371
3.717000	1.272438
3.718000	1.427043
3.719000	1.638659
3.720000	1.788433
3.721000	1.766531
3.722000	1.567799
3.723000	1.320752
3.724000	1.167435
3.725000	1.285000
3.726000	1.373576
3.727000	1.419635
3.728000	1.517552
3.729000	1.447657
3.730000	1.310123
3.731000	1.265352
3.732000	1.332992
3.733000	1.482444
3.734000	1.507567
3.735000	1.437672
3.736000	1.301104
3.737000	1.024103
3.738000	0.892689
3.739000	0.912014
3.740000	1.055668
3.741000	1.340722
3.742000	1.562001
3.743000	1.533012
3.744000	1.386137
3.745000	1.358759
3.746000	1.388070
3.747000	1.410294
3.748000	1.579716
3.749000	1.949159
3.750000	2.165928
3.751000	2.069300
3.752000	1.866058
3.753000	1.732067
3.754000	1.671191
3.755000	1.665071
3.756000	1.654764
3.757000	1.609349
3.758000	1.689550
3.759000	1.830628
3.760000	2.026783
3.761000	1.925968
3.762000	1.593566
3.763000	1.350063
3.764000	1.302071
3.765000	1.534945
3.766000	1.725303
3.767000	1.933698
3.768000	2.073809
3.769000	1.902133
3.770000	1.632540
3.771000	1.442826
3.772000	1.321718
3.773000	1.274048
3.774000	1.269861
3.775000	1.308190
3.776000	1.455710
3.777000	1.799707
3.778000	2.209411
3.779000	2.378511
3.780000	2.409110
3.781000	2.436810
3.782000	2.441964
3.783000	2.391717
3.784000	2.086371
3.785000	1.614180
3.786000	1.313022
3.787000	1.156484
3.788000	1.148110
3.789000	1.201577
3.790000	1.189982
3.791000	1.164858
3.792000	1.238618
3.793000	1.361658
3.794000	1.587768
3.795000	1.724337
3.796000	1.733999
3.797000	1.642847
3.798000	1.461830
3.799000	1.294663
3.800000	1.090133
3.801000	0.923288
3.802000	0.862090
3.803000	1.017661
3.804000	1.574885
3.805000	2.255793
3.806000	2.453881
3.807000	2.507349
3.808000	2.480937
3.809000	2.133075
3.810000	1.484698
3.811000	1.159705
3.812000	1.033444
3.813000	0.992860
3.814000	1.046972
3.815000	1.161960
3.816000	1.187727
3.817000	1.237330
3.818000	1.353284
3.819000	1.438961
3.820000	1.486309
3.821000	1.441538
3.822000	1.298850
3.823000	1.106237
3.824000	0.970636
3.825000	0.916202
3.826000	0.982231
3.827000	1.173233
3.828000	1.532690
3.829000	1.826118
3.830000	2.046753
3.831000	2.028716
3.832000	1.895369
3.833000	1.737542
3.834000	1.705011
3.835000	1.770396
3.836000	1.868957
3.837000	2.059315
3.838000	2.175269
3.839000	2.176880
3.840000	2.043855
3.841000	1.816134
3.842000	1.553949
3.843000	1.409328
3.844000	1.328805
3.845000	1.349096
3.846000	1.443470
3.847000	1.569409
3.848000	1.675056
3.849000	1.858006
3.850000	1.956567
3.851000	1.999083
3.852000	2.038379
3.853000	1.981690
3.854000	1.744951
3.855000	1.460863
3.856000	1.313988
3.857000	1.176132
3.858000	1.233787
3.859000	1.502413
3.860000	1.870568
3.861000	2.207479
3.862000	2.308294
3.863000	2.379800
3.864000	2.380766
3.865000	2.364983
3.866000	2.307650
3.867000	2.163030
3.868000	2.083794
3.869000	1.907931
3.870000	1.621266
3.871000	1.380984
3.872000	1.207053
3.873000	1.036665
3.874000	0.891400
3.875000	0.858547
3.876000	0.882060
3.877000	0.954531
3.878000	1.015085
3.879000	1.057279
3.880000	1.090777
3.881000	1.084979
3.882000	1.098185
3.883000	1.209307
3.884000	1.427365
3.885000	1.765565
3.886000	2.077030
3.887000	2.278984
3.888000	2.269965
3.889000	2.161097
3.890000	1.895691
3.891000	1.483732
3.892000	1.319786
3.893000	1.300460
3.894000	1.350385
3.895000	1.367456
3.896000	1.382594
3.897000	1.443470
3.898000	1.470526
3.899000	1.379373
3.900000	1.309479
3.901000	1.314632
3.902000	1.349741
3.903000	1.353928
3.904000	1.334602
3.905000	1.300460
3.906000	1.340722
3.907000	1.527215
3.908000	1.849309
3.909000	2.182677
3.910000	2.362406
3.911000	2.306684
3.912000	2.121157
3.913000	1.930155
3.914000	1.695992
3.915000	1.424467
3.916000	1.292730
3.917000	1.229599
3.918000	1.234431
3.919000	1.277914
3.920000	1.386137
3.921000	1.505956
3.922000	1.593244
3.923000	1.640914
3.924000	1.634150
3.925000	1.607738
3.926000	1.552982
3.927000	1.445081
3.928000	1.373254
3.929000	1.444436
3.930000	1.617401
3.931000	1.833205
3.932000	1.976537
3.933000	1.956889
3.934000	2.022918
3.935000	2.138228
3.936000	2.108918
3.937000	1.905354
3.938000	1.700502
3.939000	1.581327
3.940000	1.511754
3.941000	1.515619
3.942000	1.630285
3.943000	1.895369
3.944000	2.307328
3.945000	2.426825
3.946000	2.448406
3.947000	2.417485
3.948000	2.331163
3.949000	2.090880
3.950000	1.849953
3.951000	1.638659
3.952000	1.397411
3.953000	1.169046
3.954000	1.033444
3.955000	0.973212
3.956000	0.951310
3.957000	0.890756
3.958000	0.886569
3.959000	0.993826
3.960000	1.101406
3.961000	1.159061
3.962000	1.237652
3.963000	1.271794
3.964000	1.312056
3.965000	1.401276
3.966000	1.625776
3.967000	1.717895
3.968000	1.738831
3.969000	1.673446
3.970000	1.589379
3.971000	1.552016
3.972000	1.459575
3.973000	1.293374
3.974000	1.285644
3.975000	1.327516
3.976000	1.378085
3.977000	1.368100
3.978000	1.377441
3.979000	1.367134
3.980000	1.360048
3.981000	1.338789
3.982000	1.320752
3.983000	1.317853
3.984000	1.320108
3.985000	1.350707
3.986000	1.361336
3.987000	1.370677
3.988000	1.458609
3.989000	1.568443
3.990000	1.736254
3.991000	1.933054
3.992000	2.030004
3.993000	2.016154
3.994000	1.940462
3.995000	1.759445
3.996000	1.629319
3.997000	1.576495
3.998000	1.507245
3.999000	1.533012
4.000000	1.587446
4.001000	1.590023
4.002000	1.670547
4.003000	1.793587
4.004000	1.846733
4.005000	1.861549
4.006000	1.916627
4.007000	2.156266
4.008000	2.304107
4.009000	2.272542
4.010000	2.298310
4.011000	2.227127
4.012000	1.906964
4.013000	1.510144
4.014000	1.145855
4.015000	1.029257
4.016000	1.098829
4.017000	1.281457
4.018000	1.516586
4.019000	1.741730
4.020000	1.977503
4.021000	2.045143
4.022000	1.997151
4.023000	1.811302
4.024000	1.664105
4.025000	1.337823
4.026000	1.026680
4.027000	0.803147
4.028000	0.737117
4.029000	0.769327
4.030000	0.875296
4.031000	1.043751
4.032000	1.345231
4.033000	1.622233
4.034000	1.714996
4.035000	1.757512
4.036000	1.779093
4.037000	1.778126
4.038000	1.867347
4.039000	2.221973
4.040000	2.420706
4.041000	2.457747
4.042000	2.420384
4.043000	2.257403
4.044000	1.981690
4.045000	1.698569
4.046000	1.356505
4.047000	1.179353
4.048000	1.107526
4.049000	1.122986
4.050000	1.207697
4.051000	1.264708
4.052000	1.309801
4.053000	1.376152
4.054000	1.309801
4.055000	1.265030
4.056000	1.258910
4.057000	1.248603
4.058000	1.267607
4.059000	1.358759
4.060000	1.521095
4.061000	1.667004
4.062000	1.908897
4.063000	2.195883
4.064000	2.277051
4.065000	2.142416
4.066000	1.946904
4.067000	1.815489
4.068000	1.735610
4.069000	1.702434
4.070000	1.676989
4.071000	1.622233
4.072000	1.638015
4.073000	1.550728
4.074000	1.439927
4.075000	1.335891
4.076000	1.255045
4.077000	1.259876
4.078000	1.299816
4.079000	1.327838
4.080000	1.313344
4.081000	1.361014
4.082000	1.443792
4.083000	1.490496
4.084000	1.524960
4.085000	1.647678
4.086000	1.731745
4.087000	1.695026
4.088000	1.675378
4.089000	1.721116
4.090000	1.698569
4.091000	1.555559
4.092000	1.462474
4.093000	1.439927
4.094000	1.459575
4.095000	1.590023
4.096000	1.938852
4.097000	2.286070
4.098000	2.409110
4.099000	2.358863
4.100000	2.106019
4.101000	1.798418
4.102000	1.579072
4.103000	1.579394
4.104000	1.552338
4.105000	1.485020
4.106000	1.478901
4.107000	1.428654
4.108000	1.459253
4.109000	1.668292
4.110000	1.907931
4.111000	2.110528
4.112000	2.150468
4.113000	1.967518
4.114000	1.611926
4.115000	1.226056
4.116000	0.978044
4.117000	0.820540
4.118000	0.758375
4.119000	0.761919
4.120000	0.885603
4.121000	1.151008
4.122000	1.296917
4.123000	1.279846
4.124000	1.278236
4.125000	1.390647
4.126000	1.527859
4.127000	1.682464
4.128000	1.765887
4.129000	1.776516
4.130000	1.737542
4.131000	1.659273
4.132000	1.505634
4.133000	1.310123
4.134000	1.182574
4.135000	1.169046
4.136000	1.261809
4.137000	1.382594
4.138000	1.490818
4.139000	1.563289
4.140000	1.658307
4.141000	1.705977
4.142000	1.687940
4.143000	1.662172
4.144000	1.685685
4.145000	1.805504
4.146000	1.973316
4.147000	2.225838
4.148000	2.388174
4.149000	2.384953
4.150000	2.297987
4.151000	2.062858
4.152000	1.861227
4.153000	1.687618
4.154000	1.479223
4.155000	1.433485
4.156000	1.489208
4.157000	1.521095
4.158000	1.454099
4.159000	1.316243
4.160000	1.236041
4.161000	1.236686
4.162000	1.215427
4.163000	1.167435
4.164000	1.173877
4.165000	1.234431
4.166000	1.355216
4.167000	1.384527
4.168000	1.353284
4.169000	1.260843
4.170000	1.189660
4.171000	1.203188
4.172000	1.375186
4.173000	1.745273
4.174000	2.121801
4.175000	2.344369
4.176000	2.427148
4.177000	2.447117
4.178000	2.442286
4.179000	2.355642
4.180000	2.078963
4.181000	1.792943
4.182000	1.544286
4.183000	1.372931
4.184000	1.285966
4.185000	1.294340
4.186000	1.389036
4.187000	1.479867
4.188000	1.480511
4.189000	1.377441
4.190000	1.239906
4.191000	1.211884
4.192000	1.252790
4.193000	1.274048
4.194000	1.469560
4.195000	1.652832
4.196000	1.619656
4.197000	1.560390
4.198000	1.428332
4.199000	1.292730
4.200000	1.219292
4.201000	1.262775
4.202000	1.346842
4.203000	1.372287
4.204000	1.403530
4.205000	1.477612
4.206000	1.600330
4.207000	1.797774
4.208000	1.967840
4.209000	2.065757
4.210000	2.050296
4.211000	1.952380
4.212000	1.773295
4.213000	1.553949
4.214000	1.381628
4.215000	1.313666
4.216000	1.217360
4.217000	1.120732
4.218000	1.152941
4.219000	1.317209
4.220000	1.530436
4.221000	1.661206
4.222000	1.824508
4.223000	2.091847
4.224000	2.343403
4.225000	2.402990
4.226000	2.374324
4.227000	2.218108
4.228000	1.860583
4.229000	1.562001
4.230000	1.485342
4.231000	1.618690
4.232000	1.664749
4.233000	1.516263
4.234000	1.306258
4.235000	1.190304
4.236000	1.211240
4.237000	1.209307
4.238000	1.190948
4.239000	1.186761
4.240000	1.200289
4.241000	1.176132
4.242000	1.186439
4.243000	1.197390
4.244000	1.260198
4.245000	1.428010
4.246000	1.787145
4.247000	2.125345
4.248000	2.315703
4.249000	2.351455
4.250000	2.323755
4.251000	2.173015
4.252000	1.964297
4.253000	1.716928
4.254000	1.529469
4.255000	1.478578
4.256000	1.474391
4.257000	1.462796
4.258000	1.378085
4.259000	1.305614
4.260000	1.258588
4.261000	1.253112
4.262000	1.306258
4.263000	1.376152
4.264000	1.457642
4.265000	1.506279
4.266000	1.436384
4.267000	1.306258
4.268000	1.165503
4.269000	1.071773
4.270000	1.045039
4.271000	1.167113
4.272000	1.369388
4.273000	1.633184
4.274000	1.874433
4.275000	2.048686
4.276000	2.104408
4.277000	2.012933
4.278000	1.927578
4.279000	1.867347
4.280000	1.775550
4.281000	1.699213
4.282000	1.647678
4.283000	1.577461
4.284000	1.609349
4.285000	1.611926
4.286000	1.673768
4.287000	1.698569
4.288000	1.725947
4.289000	1.692771
4.290000	1.574563
4.291000	1.462796
4.292000	1.502736
4.293000	1.614502
4.294000	1.688262
4.295000	1.656053
4.296000	1.653798
4.297000	1.691483
4.298000	1.556847
4.299000	1.299494
4.300000	1.144567
4.301000	1.182896
4.302000	1.326550
4.303000	1.446047
4.304000	1.543964
4.305000	1.550406
4.306000	1.504346
4.307000	1.453133
4.308000	1.466661
4.309000	1.523350
4.310000	1.637371
4.311000	1.747527
4.312000	1.813879
4.313000	1.797774
4.314000	1.690195
4.315000	1.698247
4.316000	1.858972
4.317000	1.952702
4.318000	2.001660
4.319000	1.963009
4.320000	1.772329
4.321000	1.520773
4.322000	1.260198
4.323000	1.132005
4.324000	1.048582
4.325000	1.072095
4.326000	1.311089
4.327000	1.602263
4.328000	1.755580
4.329000	1.727558
4.330000	1.629641
4.331000	1.522705
4.332000	1.425755
4.333000	1.464406
4.334000	1.661206
4.335000	1.908897
4.336000	2.052873
4.337000	2.103764
4.338000	2.025817
4.339000	1.861227
4.340000	1.712419
4.341000	1.683108
4.342000	1.590989
4.343000	1.600974
4.344000	1.778126
4.345000	1.863481
4.346000	1.824186
4.347000	1.664749
4.348000	1.474713
4.349000	1.311411
4.350000	1.208985
4.351000	1.123630
4.352000	1.032156
4.353000	1.046650
4.354000	1.150686
4.355000	1.219292
4.356000	1.268251
4.357000	1.271794
4.358000	1.295951
4.359000	1.365845
4.360000	1.543642
4.361000	1.790688
4.362000	1.907608
4.363000	2.016476
4.364000	2.067367
4.365000	2.037413
4.366000	2.034192
4.367000	1.984911
4.368000	1.944649
4.369000	1.874111
4.370000	1.954312
4.371000	2.039989
4.372000	2.087015
4.373000	1.987488
4.374000	1.712097
4.375000	1.553304
4.376000	1.397733
4.377000	1.235075
4.378000	1.156806
4.379000	1.162282
4.380000	1.202866
4.381000	1.257300
4.382000	1.325584
4.383000	1.355216
4.384000	1.324617
4.385000	1.271794
4.386000	1.236041
4.387000	1.263097
4.388000	1.318497
4.389000	1.557492
4.390000	2.046753
4.391000	2.359185
4.392000	2.421994
4.393000	2.366594
4.394000	2.051585
4.395000	1.696314
4.396000	1.407718
4.397000	1.194813
4.398000	1.065331
4.399000	1.005422
4.400000	1.087878
4.401000	1.167113
4.402000	1.187083
4.403000	1.256333
4.404000	1.383883
4.405000	1.641236
4.406000	1.861549
4.407000	2.015832
4.408000	2.105375
4.409000	2.090558
4.410000	2.110528
4.411000	2.011645
4.412000	1.915983
4.413000	1.835459
4.414000	1.708876
4.415000	1.562001
4.416000	1.595499
4.417000	1.685685
4.418000	1.715640
4.419000	1.639626
4.420000	1.487275
4.421000	1.423822
4.422000	1.393545
4.423000	1.379695
4.424000	1.369388
4.425000	1.367778
4.426000	1.375508
4.427000	1.357471
4.428000	1.369388
4.429000	1.409006
4.430000	1.428010
4.431000	1.429942
4.432000	1.394834
4.433000	1.372609
4.434000	1.371321
4.435000	1.383238
4.436000	1.387426
4.437000	1.376474
4.438000	1.302715
4.439000	1.255367
4.440000	1.241195
4.441000	1.463440
4.442000	1.792943
4.443000	2.066401
4.444000	2.107629
4.445000	1.957533
4.446000	1.694060
4.447000	1.466339
4.448000	1.390325
4.449000	1.396444
4.450000	1.482766
4.451000	1.613214
4.452000	1.659918
4.453000	1.634472
4.454000	1.527537
4.455000	1.427043
4.456000	1.393223
4.457000	1.444114
4.458000	1.602907
4.459000	1.832882
4.460000	2.075742
4.461000	2.206835
4.462000	2.330841
4.463000	2.311515
4.464000	2.116326
4.465000	1.827729
4.466000	1.655086
4.467000	1.527215
4.468000	1.484376
4.469000	1.550728
4.470000	1.673768
4.471000	1.627064
4.472000	1.500803
4.473000	1.374220
4.474000	1.267284
4.475000	1.218970
4.476000	1.185473
4.477000	1.187083
4.478000	1.209307
4.479000	1.242483
4.480000	1.267929
4.481000	1.322685
4.482000	1.383561
4.483000	1.520773
4.484000	1.787789
4.485000	2.122124
4.486000	2.182677
4.487000	2.055450
4.488000	1.782636
4.489000	1.500481
4.490000	1.369388
4.491000	1.419635
4.492000	1.558458
4.493000	1.651865
4.494000	1.555237
4.495000	1.376474
4.496000	1.243772
4.497000	1.185150
4.498000	1.192559
4.499000	1.218970
4.500000	1.288865
4.501000	1.335891
4.502000	1.366490
4.503000	1.341044
4.504000	1.318175
4.505000	1.306258
4.506000	1.304325
4.507000	1.354572
4.508000	1.391291
4.509000	1.388070
4.510000	1.370355
4.511000	1.361658
4.512000	1.445081
4.513000	1.549439
4.514000	1.630929
4.515000	1.848021
4.516000	2.006169
4.517000	2.152400
4.518000	2.167861
4.519000	1.940784
4.520000	1.789722
4.521000	1.668936
4.522000	1.685363
4.523000	1.669903
4.524000	1.644457
4.525000	1.722726
4.526000	1.679565
4.527000	1.709520
4.528000	1.823220
4.529000	1.872822
4.530000	1.895369
4.531000	1.794875
4.532000	1.695992
4.533000	1.766531
4.534000	1.855107
4.535000	1.835459
4.536000	1.856073
4.537000	1.878620
4.538000	1.846088
4.539000	1.775872
4.540000	1.712419
4.541000	1.719505
4.542000	1.776194
4.543000	1.652187
4.544000	1.454421
4.545000	1.245060
4.546000	1.086590
4.547000	1.020238
4.548000	1.004456
4.549000	1.057601
4.550000	1.137158
4.551000	1.276947
4.552000	1.539132
4.553000	1.904065
4.554000	2.200071
4.555000	2.326654
4.556000	2.275763
4.557000	2.014222
4.558000	1.652187
4.559000	1.404175
4.560000	1.240873
4.561000	1.106559
4.562000	1.003167
4.563000	0.971602
4.564000	0.972890
4.565000	0.970636
4.566000	1.003489
4.567000	1.106237
4.568000	1.323329
4.569000	1.611926
4.570000	1.762022
4.571000	1.804216
4.572000	1.862515
4.573000	2.020342
4.574000	2.191374
4.575000	2.290257
4.576000	2.228737
4.577000	2.113749
4.578000	1.913728
4.579000	1.525926
4.580000	1.272116
4.581000	1.285966
4.582000	1.319464
4.583000	1.312700
4.584000	1.325584
4.585000	1.361014
4.586000	1.384527
4.587000	1.490818
4.588000	1.602907
4.589000	1.599686
4.590000	1.555237
4.591000	1.523350
4.592000	1.522061
4.593000	1.527537
4.594000	1.573596
4.595000	1.626098
4.596000	1.686329
4.597000	2.048364
4.598000	2.398481
4.599000	2.454204
4.600000	2.408788
4.601000	2.075742
4.602000	1.628352
4.603000	1.350063
4.604000	1.204798
4.605000	1.171945
4.606000	1.241517
4.607000	1.342655
4.608000	1.418669
4.609000	1.410939
4.610000	1.344909
4.611000	1.269539
4.612000	1.227345
4.613000	1.219615
4.614000	1.227989
4.615000	1.259554
4.616000	1.366490
4.617000	1.686974
4.618000	2.031615
4.619000	2.231958
4.620000	2.337283
4.621000	2.412653
4.622000	2.444219
4.623000	2.389140
4.624000	1.967840
4.625000	1.323973
4.626000	0.935527
4.627000	0.779634
4.628000	0.789941
4.629000	0.906861
4.630000	1.160993
4.631000	1.435418
4.632000	1.657663
4.633000	1.710486
4.634000	1.639948
4.635000	1.608060
4.636000	1.620944
4.637000	1.788111
4.638000	1.974926
4.639000	2.058671
4.640000	1.965263
4.641000	1.890537
4.642000	1.839646
4.643000	1.780059
4.644000	1.702756
4.645000	1.613536
4.646000	1.530436
4.647000	1.406751
4.648000	1.264064
4.649000	1.248925
4.650000	1.356827
4.651000	1.463762
4.652000	1.500481
4.653000	1.456354
4.654000	1.432197
4.655000	1.506923
4.656000	1.825796
4.657000	2.029038
4.658000	2.062536
4.659000	1.957855
4.660000	1.804216
4.661000	1.674412
4.662000	1.426077
4.663000	1.153263
4.664000	1.155840
4.665000	1.251180
4.666000	1.353606
4.667000	1.461507
4.668000	1.640270
4.669000	1.744951
4.670000	1.687296
4.671000	1.539454
4.672000	1.286610
4.673000	1.103016
4.674000	1.026680
4.675000	1.041174
4.676000	1.084335
4.677000	1.181285
4.678000	1.416736
4.679000	1.672479
4.680000	1.850920
4.681000	1.897301
4.682000	1.799385
4.683000	1.708554
4.684000	1.679565
4.685000	1.652509
4.686000	1.651543
4.687000	1.536555
4.688000	1.445081
4.689000	1.513365
4.690000	1.819999
4.691000	2.254182
4.692000	2.431657
4.693000	2.487057
4.694000	2.495110
4.695000	2.462578
4.696000	2.387530
4.697000	2.154655
4.698000	1.717250
4.699000	1.426077
4.700000	1.272438
4.701000	1.101406
4.702000	0.931340
4.703000	0.841798
4.704000	0.823116
4.705000	0.884959
4.706000	0.989317
4.707000	1.169690
4.708000	1.394512
4.709000	1.517230
4.710000	1.514331
4.711000	1.491140
4.712000	1.636405
4.713000	1.891504
4.714000	2.082506
4.715000	2.113427
4.716000	2.059959
4.717000	2.083794
4.718000	2.335028
4.719000	2.435200
4.720000	2.349845
4.721000	1.866702
4.722000	1.296273
4.723000	0.953887
4.724000	0.823116
4.725000	0.815064
4.726000	0.910082
4.727000	1.033122
4.728000	1.149720
4.729000	1.311734
4.730000	1.409006
4.731000	1.493395
4.732000	1.664749
4.733000	1.870568
4.734000	1.981690
4.735000	1.988454
4.736000	2.093457
4.737000	2.151112
4.738000	2.208123
4.739000	2.297987
4.740000	2.179456
4.741000	1.978469
4.742000	1.754613
4.743000	1.601296
4.744000	1.456676
4.745000	1.311411
4.746000	1.199645
4.747000	1.127818
4.748000	1.098185
4.749000	1.090777
4.750000	1.074350
4.751000	1.007999
4.752000	0.904284
4.753000	0.854037
4.754000	0.859191
4.755000	0.856936
4.756000	0.998980
4.757000	1.232820
4.758000	1.586158
4.759000	1.841901
4.760000	1.943683
4.761000	1.999728
4.762000	2.059959
4.763000	2.038701
4.764000	1.981046
4.765000	1.911151
4.766000	1.848665
4.767000	1.842223
4.768000	1.919848
4.769000	2.077674
4.770000	2.228093
4.771000	2.235501
4.772000	2.116970
4.773000	2.048042
4.774000	2.046109
4.775000	2.168183
4.776000	2.248385
4.777000	2.068334
4.778000	1.706621
4.779000	1.458609
4.780000	1.233142
4.781000	1.209952
4.782000	1.214461
4.783000	1.325906
4.784000	1.393223
4.785000	1.514009
4.786000	1.596143
4.787000	1.497582
4.788000	1.436062
4.789000	1.559102
4.790000	1.763310
4.791000	1.824186
4.792000	1.705655
4.793000	1.454099
4.794000	1.160671
4.795000	1.032156
4.796000	0.926509
4.797000	0.899775
4.798000	0.906539
4.799000	0.933595
4.800000	1.019916
4.801000	1.178064
4.802000	1.412227
4.803000	1.637371
4.804000	1.847377
4.805000	1.988454
4.806000	1.974604
4.807000	1.874111
4.808000	1.702756
4.809000	1.540421
4.810000	1.506601
4.811000	1.583259
4.812000	1.626420
4.813000	1.631251
4.814000	1.687296
4.815000	1.899556
4.816000	2.170760
4.817000	2.298310
4.818000	2.319568
4.819000	2.185898
4.820000	1.763954
4.821000	1.328482
4.822000	1.149720
4.823000	1.170334
4.824000	1.258588
4.825000	1.404819
4.826000	1.518518
4.827000	1.799063
4.828000	2.201037
4.829000	2.315381
4.830000	2.213276
4.831000	1.936597
4.832000	1.677955
4.833000	1.363591
4.834000	1.108170
4.835000	0.970636
4.836000	0.896876
4.837000	0.871753
4.838000	0.902352
4.839000	1.020560
4.840000	1.237330
4.841000	1.540743
4.842000	1.810980
4.843000	2.009068
4.844000	1.954634
4.845000	1.718539
4.846000	1.483410
4.847000	1.419313
4.848000	1.567154
4.849000	1.862193
4.850000	2.133075
4.851000	2.298954
4.852000	2.377545
4.853000	2.335995
4.854000	2.200715
4.855000	2.054484
4.856000	1.871856
4.857000	1.737865
4.858000	1.714352
4.859000	1.719183
4.860000	1.769752
4.861000	1.762666
4.862000	1.632862
4.863000	1.640592
4.864000	1.654442
4.865000	1.453133
4.866000	1.278236
4.867000	1.269217
4.868000	1.408040
4.869000	1.655086
4.870000	1.899878
4.871000	1.836426
4.872000	1.657663
4.873000	1.588735
4.874000	1.633506
4.875000	1.648644
4.876000	1.598398
4.877000	1.508211
4.878000	1.307868
4.879000	1.097863
4.880000	0.982875
4.881000	0.923932
4.882000	0.925220
4.883000	1.027002
4.884000	1.134582
4.885000	1.171300
4.886000	1.228311
4.887000	1.284355
4.888000	1.286932
4.889000	1.298528
4.890000	1.359403
4.891000	1.453777
4.892000	1.531724
4.893000	1.600652
4.894000	1.617401
4.895000	1.601941
4.896000	1.698891
4.897000	1.897623
4.898000	2.131142
4.899000	2.298310
4.900000	2.306040
4.901000	2.020986
4.902000	1.752037
4.903000	1.528503
4.904000	1.390325
4.905000	1.187083
4.906000	1.063399
4.907000	1.002201
4.908000	1.040530
4.909000	1.167113
4.910000	1.267284
4.911000	1.381306
4.912000	1.486309
4.913000	1.523027
4.914000	1.545574
4.915000	1.545252
4.916000	1.552338
4.917000	1.644135
4.918000	1.913084
4.919000	2.207157
4.920000	2.365627
4.921000	2.396549
4.922000	2.383021
4.923000	2.340826
4.924000	2.324077
4.925000	2.333418
4.926000	2.329875
4.927000	2.229381
4.928000	2.164640
4.929000	1.898912
4.930000	1.507245
4.931000	1.138769
4.932000	0.933273
4.933000	0.931984
4.934000	1.058245
4.935000	1.274693
4.936000	1.359403
4.937000	1.386459
4.938000	1.338789
4.939000	1.247959
4.940000	1.177420
4.941000	1.240229
4.942000	1.311411
4.943000	1.360692
4.944000	1.664427
4.945000	1.928222
4.946000	2.116970
4.947000	2.210055
4.948000	2.038379
4.949000	1.725947
4.950000	1.453455
4.951000	1.308513
4.952000	1.314310
4.953000	1.282423
4.954000	1.319786
4.955000	1.476002
4.956000	1.674090
4.957000	1.746239
4.958000	1.623199
4.959000	1.484698
4.960000	1.349419
4.961000	1.226378
4.962000	1.081436
4.963000	1.034410
4.964000	1.099473
4.965000	1.234431
4.966000	1.369711
4.967000	1.508211
4.968000	1.734644
4.969000	2.042566
4.970000	2.314736
4.971000	2.430368
4.972000	2.448728
4.973000	2.383987
4.974000	2.112139
4.975000	1.651865
4.976000	1.225734
4.977000	1.006710
4.978000	0.896876
4.979000	0.881093
4.980000	0.931018
4.981000	0.985452
4.982000	1.035054
4.983000	1.137480
4.984000	1.254079
4.985000	1.374542
4.986000	1.447013
4.987000	1.510788
4.988000	1.573274
4.989000	1.681498
4.990000	1.799707
4.991000	1.864448
4.992000	1.846410
4.993000	1.917271
4.994000	2.239688
4.995000	2.441964
4.996000	2.468054
4.997000	2.412009
4.998000	2.148857
4.999000	1.690839
5.000000	1.368422
5.001000	1.150686
5.002000	0.997369
5.003000	0.976111
5.004000	1.051803
5.005000	1.165825
5.006000	1.354250
5.007000	1.610315
5.008000	1.813235
5.009000	1.874111
5.010000	1.876365
5.011000	1.966874
5.012000	2.213276
5.013000	2.432623
5.014000	2.464188
5.015000	2.398481
5.016000	2.103764
5.017000	1.726269
5.018000	1.435096
5.019000	1.234753
5.020000	1.042785
5.021000	0.909760
5.022000	0.837289
5.023000	0.898809
5.024000	1.076927
5.025000	1.287576
5.026000	1.479545
5.027000	1.635761
5.028000	1.763310
5.029000	1.860905
5.030000	1.920492
5.031000	1.811624
5.032000	1.648966
5.033000	1.459897
5.034000	1.281135
5.035000	1.137803
5.036000	1.180641
5.037000	1.290797
5.038000	1.504346
5.039000	1.647678
5.040000	1.637371
5.041000	1.492428
5.042000	1.292086
5.043000	1.155196
5.044000	1.222191
5.045000	1.551372
5.046000	2.024529
5.047000	2.378833
5.048000	2.460323
5.049000	2.474496
5.050000	2.431979
5.051000	2.287680
5.052000	1.930477
5.053000	1.457964
5.054000	1.127818
5.055000	0.945512
5.056000	0.911692
5.057000	0.906539
5.058000	0.917168
5.059000	0.963872
5.060000	1.031511
5.061000	1.218326
5.062000	1.492106
5.063000	1.682142
5.064000	1.845766
5.065000	2.020020
5.066000	2.138550
5.067000	2.217142
5.068000	2.191374
5.069000	2.096678
5.070000	1.904065
5.071000	1.721438
5.072000	1.551050
5.073000	1.420601
5.074000	1.276625
5.075000	1.253757
5.076000	1.285644
5.077000	1.327194
5.078000	1.397089
5.079000	1.583903
5.080000	1.701790
5.081000	1.710486
5.082000	1.640270
5.083000	1.507889
5.084000	1.422856
5.085000	1.464084
5.086000	2.068334
5.087000	2.452915
5.088000	2.495110
5.089000	2.496398
5.090000	2.458391
5.091000	2.221651
5.092000	1.678599
5.093000	1.288865
5.094000	1.036665
5.095000	0.911048
5.096000	0.863378
5.097000	0.815386
5.098000	0.757087
5.099000	0.782210
5.100000	0.876584
5.101000	1.087556
5.102000	1.364235
5.103000	1.741730
5.104000	1.979436
5.105000	1.959788
5.106000	1.772329
5.107000	1.511110
5.108000	1.318820
5.109000	1.069841
5.110000	0.903962
5.111000	0.923932
5.112000	1.040208
5.113000	1.246348
5.114000	1.602263
5.115000	1.955601
5.116000	2.177202
5.117000	2.239044
5.118000	2.162063
5.119000	2.030649
5.120000	1.905032
5.121000	1.767497
5.122000	1.667648
5.123000	1.570697
5.124000	1.524638
5.125000	1.611926
5.126000	1.755580
5.127000	1.773617
5.128000	1.722404
5.129000	1.613214
5.130000	1.597109
5.131000	1.581004
5.132000	1.488563
5.133000	1.450556
5.134000	1.499837
5.135000	1.476968
5.136000	1.502413
5.137000	1.569731
5.138000	1.864448
5.139000	2.044499
5.140000	2.003593
5.141000	1.915017
5.142000	1.796486
5.143000	1.696959
5.144000	1.580360
5.145000	1.545574
5.146000	1.587124
5.147000	1.755258
5.148000	1.788755
5.149000	1.663783
5.150000	1.381306
5.151000	1.153585
5.152000	0.995759
5.153000	1.018950
5.154000	1.267607
5.155000	1.679243
5.156000	1.998761
5.157000	2.081540
5.158000	1.966874
5.159000	1.824508
5.160000	1.733355
5.161000	1.532046
5.162000	1.292408
5.163000	1.066620
5.164000	0.852427
5.165000	0.791551
5.166000	0.822150
5.167000	0.957752
5.168000	1.220259
5.169000	1.568765
5.170000	1.775550
5.171000	1.698891
5.172000	1.643169
5.173000	1.673124
5.174000	1.669258
5.175000	1.680210
5.176000	1.708554
5.177000	1.859294
5.178000	2.033547
5.179000	2.192662
5.180000	2.370137
5.181000	2.464188
5.182000	2.488346
5.183000	2.464833
5.184000	2.371103
5.185000	2.107307
5.186000	1.649933
5.187000	1.308835
5.188000	1.163570
5.189000	1.122342
5.190000	1.086912
5.191000	1.110747
5.192000	1.124597
5.193000	1.120409
5.194000	1.105271
5.195000	1.103983
5.196000	1.100118
5.197000	1.120732
5.198000	1.194813
5.199000	1.279202
5.200000	1.341688
5.201000	1.356183
5.202000	1.382594
5.203000	1.528825
5.204000	1.723048
5.205000	1.850276
5.206000	1.983301
5.207000	2.057705
5.208000	1.999728
5.209000	1.900844
5.210000	1.778448
5.211000	1.619012
5.212000	1.481477
5.213000	1.365201
5.214000	1.260520
5.215000	1.186439
5.216000	1.169368
5.217000	1.258588
5.218000	1.404497
5.219000	1.580682
5.220000	1.829984
5.221000	2.085727
5.222000	2.233891
5.223000	2.245486
5.224000	2.135329
5.225000	1.917593
5.226000	1.803250
5.227000	1.653154
5.228000	1.511754
5.229000	1.330737
5.230000	1.200611
5.231000	1.148110
5.232000	1.167435
5.233000	1.175810
5.234000	1.220903
5.235000	1.316243
5.236000	1.461507
5.237000	1.544608
5.238000	1.621266
5.239000	1.701146
5.240000	1.781992
5.241000	1.860583
5.242000	1.962365
5.243000	2.376579
5.244000	2.495754
5.245000	2.766958
5.246000	2.772112
5.247000	2.695775
5.248000	2.484158
5.249000	1.868957
5.250000	1.314632
5.251000	1.065976
5.252000	0.956141
5.253000	0.876584
5.254000	0.835356
5.255000	0.845341
5.256000	0.928441
5.257000	1.040208
5.258000	1.142312
5.259000	1.270505
5.260000	1.369388
5.261000	1.424467
5.262000	1.402242
5.263000	1.320752
5.264000	1.275015
5.265000	1.246026
5.266000	1.293374
5.267000	1.576817
5.268000	1.778771
5.269000	1.900522
5.270000	2.055772
5.271000	2.270609
5.272000	2.391717
5.273000	2.402668
5.274000	2.343725
5.275000	2.088626
5.276000	1.733677
5.277000	1.307546
5.278000	1.069196
5.279000	1.012830
5.280000	1.060500
5.281000	1.222513
5.282000	1.584225
5.283000	1.880230
5.284000	1.997795
5.285000	2.027750
5.286000	1.957211
5.287000	1.789722
5.288000	1.551050
5.289000	1.259554
5.290000	1.015729
5.291000	0.912014
5.292000	0.879483
5.293000	0.947445
5.294000	1.058889
5.295000	1.175488
5.296000	1.296595
5.297000	1.380662
5.298000	1.471814
5.299000	1.619334
5.300000	1.721116
5.301000	1.823220
5.302000	1.944649
5.303000	2.139517
5.304000	2.298310
5.305000	2.350811
5.306000	2.336961
5.307000	2.105375
5.308000	1.791976
5.309000	1.500803
5.310000	1.329449
5.311000	1.271150
5.312000	1.232498
5.313000	1.180319
5.314000	1.139091
5.315000	1.174521
5.316000	1.272760
5.317000	1.399987
5.318000	1.500803
5.319000	1.626098
5.320000	1.838358
5.321000	2.011967
5.322000	2.054162
5.323000	1.963975
5.324000	1.805827
5.325000	1.569087
5.326000	1.392901
5.327000	1.377441
5.328000	1.453455
5.329000	1.662172
5.330000	1.832238
5.331000	1.843834
5.332000	1.660240
5.333000	1.516263
5.334000	1.341044
5.335000	1.277269
5.336000	1.448624
5.337000	1.615469
5.338000	1.687618
5.339000	1.652509
5.340000	1.608705
5.341000	1.553304
5.342000	1.435418
5.343000	1.329449
5.344000	1.284678
5.345000	1.373576
5.346000	1.536233
5.347000	1.611281
5.348000	1.649289
5.349000	1.700179
5.350000	1.782636
5.351000	1.752681
5.352000	1.676022
5.353000	1.532690
5.354000	1.283711
5.355000	1.123308
5.356000	1.073062
5.357000	1.112357
5.358000	1.193525
5.359000	1.268573
5.360000	1.263419
5.361000	1.236686
5.362000	1.197712
5.363000	1.240873
5.364000	1.442504
5.365000	1.712741
5.366000	2.005203
5.367000	2.150468
5.368000	2.152723
5.369000	2.127921
5.370000	2.164318
5.371000	2.221329
5.372000	2.230670
5.373000	2.164640
5.374000	1.999728
5.375000	1.755902
5.376000	1.628674
5.377000	1.552016
5.378000	1.514331
5.379000	1.423822
5.380000	1.415448
5.381000	1.451522
5.382000	1.461830
5.383000	1.441860
5.384000	1.562645
5.385000	1.672801
5.386000	1.704045
5.387000	1.655730
5.388000	1.503380
5.389000	1.370999
5.390000	1.316565
5.391000	1.341044
5.392000	1.422856
5.393000	1.483410
5.394000	1.566510
5.395000	1.631251
5.396000	1.640914
5.397000	1.585836
5.398000	1.377119
5.399000	1.120409
5.400000	0.959040
5.401000	0.920711
5.402000	0.979654
5.403000	1.171945
5.404000	1.496616
5.405000	1.781025
5.406000	1.916305
5.407000	1.935953
5.408000	1.913084
5.409000	1.879586
5.410000	1.849953
5.411000	1.875077
5.412000	1.938207
5.413000	2.113427
5.414000	2.126633
5.415000	2.057383
5.416000	2.011967
5.417000	1.953668
5.418000	1.961398
5.419000	1.792943
5.420000	1.578106
5.421000	1.451522
5.422000	1.412549
5.423000	1.357149
5.424000	1.311411
5.425000	1.387748
5.426000	1.621910
5.427000	1.858328
5.428000	1.889571
5.429000	1.797774
5.430000	1.656697
5.431000	1.494683
5.432000	1.312378
5.433000	1.148432
5.434000	1.021204
5.435000	0.953243
5.436000	0.914913
5.437000	0.976755
5.438000	1.112357
5.439000	1.355860
5.440000	1.585514
5.441000	1.670225
5.442000	1.706621
5.443000	1.699857
5.444000	1.675378
5.445000	1.612570
5.446000	1.603551
5.447000	1.563933
5.448000	1.518196
5.449000	1.494683
5.450000	1.493395
5.451000	1.531402
5.452000	1.662816
5.453000	1.903421
5.454000	2.207801
5.455000	2.354676
5.456000	2.198138
5.457000	1.878620
5.458000	1.567799
5.459000	1.319464
5.460000	1.253434
5.461000	1.321074
5.462000	1.451522
5.463000	1.537522
5.464000	1.630285
5.465000	1.691483
5.466000	1.692771
5.467000	1.688584
5.468000	1.635438
5.469000	1.539132
5.470000	1.449268
5.471000	1.351995
5.472000	1.303037
5.473000	1.313022
5.474000	1.413515
5.475000	1.584225
5.476000	1.730456
5.477000	1.773295
5.478000	1.799385
5.479000	1.777482
5.480000	1.689550
5.481000	1.747205
5.482000	1.864448
5.483000	1.894080
5.484000	1.918238
5.485000	1.855429
5.486000	1.857362
5.487000	1.938207
5.488000	1.998439
5.489000	1.873788
5.490000	1.593566
5.491000	1.409006
5.492000	1.275337
5.493000	1.140379
5.494000	1.101406
5.495000	1.060178
5.496000	0.991250
5.497000	1.009609
5.498000	1.092065
5.499000	1.205120
5.500000	1.282101
5.501000	1.351351
5.502000	1.401276
5.503000	1.498870
5.504000	1.627064
5.505000	1.758479
5.506000	1.874755
5.507000	1.922747
5.508000	1.926612
5.509000	1.949159
5.510000	1.928545
5.511000	1.809692
5.512000	1.709842
5.513000	1.609993
5.514000	1.466339
5.515000	1.309157
5.516000	1.242805
5.517000	1.298206
5.518000	1.332992
5.519000	1.327194
5.520000	1.353284
5.521000	1.420601
5.522000	1.493073
5.523000	1.490818
5.524000	1.481799
5.525000	1.450556
5.526000	1.441538
5.527000	1.463762
5.528000	1.509499
5.529000	1.571342
5.530000	1.659918
5.531000	1.648000
5.532000	1.541065
5.533000	1.461830
5.534000	1.465695
5.535000	1.609993
5.536000	1.759767
5.537000	1.889893
5.538000	1.886350
5.539000	1.789078
5.540000	1.839002
5.541000	1.823864
5.542000	1.689550
5.543000	1.524316
5.544000	1.471170
5.545000	1.457642
5.546000	1.469238
5.547000	1.491462
5.548000	1.612892
5.549000	1.738831
5.550000	1.820643
5.551000	1.812268
5.552000	1.737220
5.553000	1.712741
5.554000	1.775550
5.555000	1.927578
5.556000	2.013256
5.557000	1.904065
5.558000	1.816778
5.559000	1.755580
5.560000	1.651865
5.561000	1.519484
5.562000	1.388392
5.563000	1.284033
5.564000	1.263741
5.565000	1.355216
5.566000	1.446047
5.567000	1.473747
5.568000	1.511754
5.569000	1.583259
5.570000	1.686329
5.571000	1.698891
5.572000	1.633828
5.573000	1.567477
5.574000	1.508855
5.575000	1.376152
5.576000	1.203510
5.577000	1.160349
5.578000	1.166791
5.579000	1.179353
5.580000	1.310445
5.581000	1.473425
5.582000	1.514331
5.583000	1.475680
5.584000	1.492106
5.585000	1.718539
5.586000	1.951091
5.587000	2.045143
5.588000	1.976215
5.589000	1.885706
5.590000	1.693093
5.591000	1.507245
5.592000	1.453455
5.593000	1.317209
5.594000	1.230888
5.595000	1.285966
5.596000	1.348774
5.597000	1.346842
5.598000	1.328805
5.599000	1.326550
5.600000	1.399665
5.601000	1.559424
5.602000	1.617723
5.603000	1.635761
5.604000	1.664749
5.605000	1.692127
5.606000	1.631573
5.607000	1.412549
5.608000	1.353606
5.609000	1.418991
5.610000	1.525604
5.611000	1.545574
5.612000	1.525604
5.613000	1.549439
5.614000	1.695992
5.615000	2.032259
5.616000	2.199426
5.617000	2.101832
5.618000	1.930799
5.619000	1.752359
5.620000	1.662494
5.621000	1.664427
5.622000	1.760089
5.623000	1.806471
5.624000	1.713385
5.625000	1.746239
5.626000	1.817744
5.627000	1.806149
5.628000	1.647356
5.629000	1.448946
5.630000	1.276625
5.631000	1.199967
5.632000	1.212851
5.633000	1.283067
5.634000	1.295307
5.635000	1.295951
5.636000	1.335568
5.637000	1.413515
5.638000	1.415126
5.639000	1.483732
5.640000	1.535267
5.641000	1.642202
5.642000	1.774905
5.643000	2.049652
5.644000	2.198782
5.645000	2.227449
5.646000	2.067045
5.647000	1.881519
5.648000	1.722404
5.649000	1.553304
5.650000	1.368100
5.651000	1.300460
5.652000	1.268895
5.653000	1.203510
5.654000	1.157128
5.655000	1.122342
5.656000	1.118477
5.657000	1.148110
5.658000	1.251502
5.659000	1.361658
5.660000	1.422856
5.661000	1.394190
5.662000	1.406429
5.663000	1.397089
5.664000	1.422534
5.665000	1.439283
5.666000	1.504990
5.667000	1.872822
5.668000	2.336639
5.669000	2.424571
5.670000	2.421672
5.671000	2.366916
5.672000	2.118581
5.673000	1.797774
5.674000	1.596787
5.675000	1.452489
5.676000	1.476646
5.677000	1.490496
5.678000	1.406107
5.679000	1.328805
5.680000	1.161638
5.681000	0.974501
5.682000	0.885603
5.683000	0.887857
5.684000	1.026680
5.685000	1.243449
5.686000	1.568443
5.687000	1.728202
5.688000	1.716284
5.689000	1.684719
5.690000	1.667648
5.691000	1.718539
5.692000	1.728524
5.693000	1.756546
5.694000	1.855751
5.695000	2.006814
5.696000	2.122446
5.697000	2.085727
5.698000	1.969451
5.699000	1.872500
5.700000	1.658629
5.701000	1.547829
5.702000	1.478901
5.703000	1.550406
5.704000	1.593244
5.705000	1.527537
5.706000	1.469882
5.707000	1.396122
5.708000	1.300138
5.709000	1.223802
5.710000	1.204154
5.711000	1.245382
5.712000	1.417380
5.713000	1.582937
5.714000	1.622877
5.715000	1.613858
5.716000	1.588091
5.717000	1.599686
5.718000	1.579716
5.719000	1.431553
5.720000	1.270183
5.721000	1.265352
5.722000	1.418347
5.723000	1.552982
5.724000	1.543319
5.725000	1.387104
5.726000	1.182252
5.727000	1.052125
5.728000	1.065009
5.729000	1.324939
5.730000	1.976859
5.731000	2.438099
5.732000	2.496076
5.733000	2.504128
5.734000	2.772434
5.735000	2.767280
5.736000	2.772434
5.737000	2.715745
5.738000	2.490922
5.739000	2.019697
5.740000	1.532690
5.741000	1.225412
5.742000	0.965482
5.743000	0.800570
5.744000	0.754188
5.745000	0.805079
5.746000	0.910404
5.747000	1.056313
5.748000	1.176776
5.749000	1.318497
5.750000	1.419635
5.751000	1.516263
5.752000	1.519484
5.753000	1.520451
5.754000	1.511754
5.755000	1.448946
5.756000	1.380662
5.757000	1.323651
5.758000	1.291119
5.759000	1.250213
5.760000	1.246348
5.761000	1.272116
5.762000	1.316243
5.763000	1.339112
5.764000	1.331703
5.765000	1.360692
5.766000	1.492428
5.767000	1.555237
5.768000	1.595499
5.769000	1.574563
5.770000	1.547185
5.771000	1.623843
5.772000	1.932088
5.773000	2.134685
5.774000	2.153689
5.775000	2.097966
5.776000	2.014866
5.777000	1.973316
5.778000	1.924679
5.779000	1.894725
5.780000	1.901167
5.781000	1.908253
5.782000	1.887961
5.783000	1.913084
5.784000	1.968162
5.785000	2.039345
5.786000	2.103764
5.787000	2.048364
5.788000	1.793587
5.789000	1.551694
5.790000	1.281779
5.791000	1.192881
5.792000	1.182574
5.793000	1.116544
5.794000	1.056313
5.795000	1.020238
5.796000	0.982553
5.797000	0.958074
5.798000	0.966448
5.799000	0.982553
5.800000	0.996081
5.801000	1.007032
5.802000	1.098829
5.803000	1.195457
5.804000	1.303359
5.805000	1.418347
5.806000	1.554915
5.807000	1.619012
5.808000	1.699213
5.809000	1.778771
5.810000	1.867991
5.811000	2.035802
5.812000	2.088948
5.813000	2.108596
5.814000	2.045465
5.815000	1.938852
5.816000	1.896335
5.817000	1.830950
5.818000	1.705333
5.819000	1.624487
5.820000	1.624809
5.821000	1.767819
5.822000	2.151756
5.823000	2.416518
5.824000	2.453237
5.825000	2.407822
5.826000	2.209089
5.827000	1.756546
5.828000	1.423822
5.829000	1.180641
5.830000	1.072739
5.831000	1.041174
5.832000	1.041174
5.833000	1.086267
5.834000	1.095286
5.835000	1.119765
5.836000	1.150042
5.837000	1.186761
5.838000	1.215427
5.839000	1.233787
5.840000	1.274693
5.841000	1.592600
5.842000	2.090880
5.843000	2.361440
5.844000	2.389462
5.845000	2.325365
5.846000	2.163674
5.847000	1.862837
5.848000	1.505312
5.849000	1.513687
5.850000	1.576495
5.851000	1.528503
5.852000	1.450556
5.853000	1.255045
5.854000	1.062755
5.855000	0.997369
5.856000	0.995759
5.857000	1.056957
5.858000	1.278880
5.859000	1.573274
5.860000	1.858650
5.861000	2.281561
5.862000	2.474496
5.863000	2.496076
5.864000	2.495110
5.865000	2.443574
5.866000	2.173015
5.867000	1.585836
5.868000	1.122986
5.869000	0.924254
5.870000	0.836644
5.871000	0.836322
5.872000	0.959362
5.873000	1.151008
5.874000	1.380662
5.875000	1.639626
5.876000	1.721116
5.877000	1.630929
5.878000	1.485665
5.879000	1.319786
5.880000	1.263419
5.881000	1.273404
5.882000	1.377441
5.883000	1.473425
5.884000	1.661528
5.885000	1.927256
5.886000	2.208767
5.887000	2.290257
5.888000	2.201037
5.889000	1.980402
5.890000	1.647034
5.891000	1.322363
5.892000	1.145855
5.893000	1.144244
5.894000	1.179675
5.895000	1.193525
5.896000	1.224768
5.897000	1.294663
5.898000	1.357471
5.899000	1.378729
5.900000	1.349741
5.901000	1.403208
5.902000	1.542675
5.903000	1.666037
5.904000	1.704689
5.905000	1.615147
5.906000	1.479867
5.907000	1.380984
5.908000	1.339756
5.909000	1.364557
5.910000	1.462796
5.911000	1.616435
5.912000	1.758156
5.913000	2.030327
5.914000	2.188153
5.915000	2.183966
5.916000	2.077674
5.917000	1.928545
5.918000	1.799707
5.919000	1.699213
5.920000	1.690517
5.921000	1.592600
5.922000	1.645423
5.923000	2.009712
5.924000	2.358863
5.925000	2.493499
5.926000	2.496720
5.927000	2.480937
5.928000	2.213276
5.929000	1.673768
5.930000	1.194813
5.931000	0.941325
5.932000	0.842764
5.933000	0.823439
5.934000	0.808622
5.935000	0.880771
5.936000	0.964838
5.937000	1.046650
5.938000	1.122020
5.939000	1.108492
5.940000	1.078215
5.941000	1.107204
5.942000	1.090133
5.943000	1.104627
5.944000	1.134260
5.945000	1.086590
5.946000	1.102050
5.947000	1.198356
5.948000	1.393545
5.949000	1.667004
5.950000	1.874111
5.951000	2.185576
5.952000	2.375612
5.953000	2.429080
5.954000	2.412009
5.955000	2.277373
5.956000	2.041600
5.957000	1.802928
5.958000	1.534301
5.959000	1.353606
5.960000	1.260843
5.961000	1.222191
5.962000	1.237974
5.963000	1.466339
5.964000	1.886994
5.965000	2.166251
5.966000	2.254505
5.967000	2.224550
5.968000	2.097966
5.969000	2.065113
5.970000	1.973316
5.971000	1.787789
5.972000	1.522383
5.973000	1.389680
5.974000	1.319464
5.975000	1.264064
5.976000	1.295307
5.977000	1.412549
5.978000	1.406751
5.979000	1.481155
5.980000	1.637371
5.981000	1.705333
5.982000	1.697281
5.983000	1.626742
5.984000	1.526893
5.985000	1.452167
5.986000	1.386137
5.987000	1.312700
5.988000	1.261809
5.989000	1.199967
5.990000	1.152297
5.991000	1.123630
5.992000	1.190948
5.993000	1.273726
5.994000	1.239584
5.995000	1.222191
5.996000	1.308835
5.997000	1.476324
5.998000	1.710486
5.999000	1.829017
6.000000	1.878620
6.001000	1.884740
6.002000	1.950447
6.003000	2.081540
6.004000	2.154655
6.005000	2.270931
6.006000	2.345657
6.007000	2.358219
6.008000	2.447440
6.009000	2.488990
6.010000	2.495754
6.011000	2.492533
6.012000	2.444863
6.013000	2.322789
6.014000	1.981690
6.015000	1.716606
6.016000	1.407718
6.017000	1.063721
6.018000	0.856936
6.019000	0.749035
6.020000	0.706196
6.021000	0.663036
6.022000	0.656594
6.023000	0.677530
6.024000	0.740016
6.025000	0.828270
6.026000	0.911370
6.027000	1.015085
6.028000	1.148110
6.029000	1.301104
6.030000	1.445725
6.031000	1.561357
6.032000	1.598075
6.033000	1.540743
6.034000	1.531402
6.035000	1.608705
6.036000	1.653154
6.037000	1.738509
6.038000	1.830628
6.039000	1.929189
6.040000	2.033547
6.041000	2.102798
6.042000	2.168183
6.043000	2.204258
6.044000	2.081218
6.045000	1.818066
6.046000	1.548473
6.047000	1.375186
6.048000	1.375830
6.049000	1.678277
6.050000	2.104408
6.051000	2.333740
6.052000	2.399447
6.053000	2.418129
6.054000	2.433589
6.055000	2.430691
6.056000	2.342114
6.057000	1.980402
6.058000	1.590023
6.059000	1.254723
6.060000	1.057279
6.061000	0.922321
6.062000	0.816675
6.063000	0.771581
6.064000	0.881093
6.065000	1.085945
6.066000	1.332348
6.067000	1.457964
6.068000	1.504024
6.069000	1.563933
6.070000	1.592278
6.071000	1.494361
6.072000	1.340722
6.073000	1.127173
6.074000	0.994148
6.075000	0.997692
6.076000	1.118155
6.077000	1.410616
6.078000	1.788433
6.079000	2.028394
6.080000	2.036768
6.081000	1.907608
6.082000	1.759767
6.083000	1.619978
6.084000	1.559746
6.085000	1.555559
6.086000	1.472137
6.087000	1.498226
6.088000	1.571020
6.089000	1.686974
6.090000	1.899234
6.091000	2.235823
6.092000	2.415230
6.093000	2.453237
6.094000	2.429402
6.095000	2.310549
6.096000	1.915339
6.097000	1.498548
6.098000	1.303359
6.099000	1.281457
6.100000	1.249891
6.101000	1.221547
6.102000	1.201255
6.103000	1.151008
6.104000	1.038597
6.105000	0.958074
6.106000	0.921999
6.107000	0.963872
6.108000	1.174521
6.109000	1.449912
6.110000	1.594532
6.111000	1.702112
6.112000	1.918560
6.113000	2.028072
6.114000	2.109562
6.115000	2.148535
6.116000	2.150146
6.117000	2.222939
6.118000	2.131464
6.119000	1.959788
6.120000	1.772651
6.121000	1.472137
6.122000	1.328805
6.123000	1.256333
6.124000	1.171622
6.125000	1.168724
6.126000	1.148754
6.127000	1.152297
6.128000	1.221225
6.129000	1.298850
6.130000	1.381306
6.131000	1.407396
6.132000	1.361014
6.133000	1.322363
6.134000	1.328482
6.135000	1.362947
6.136000	1.371965
6.137000	1.430586
6.138000	1.557814
6.139000	1.708232
6.140000	1.890215
6.141000	1.890860
6.142000	1.822253
6.143000	1.814845
6.144000	1.728202
6.145000	1.571020
6.146000	1.513687
6.147000	1.516908
6.148000	1.477612
6.149000	1.437672
6.150000	1.542031
6.151000	1.681176
6.152000	1.793587
6.153000	1.961720
6.154000	1.971061
6.155000	1.856395
6.156000	1.667326
6.157000	1.465373
6.158000	1.341688
6.159000	1.326228
6.160000	1.481155
6.161000	1.787789
6.162000	2.097000
6.163000	2.240010
6.164000	2.223261
6.165000	2.214243
6.166000	2.087982
6.167000	1.918882
6.168000	1.710486
6.169000	1.529791
6.170000	1.378407
6.171000	1.198678
6.172000	1.093354
6.173000	1.060822
6.174000	1.129428
6.175000	1.226056
6.176000	1.336213
6.177000	1.469238
6.178000	1.588091
6.179000	1.664105
6.180000	1.762666
6.181000	1.817100
6.182000	1.880230
6.183000	2.078319
6.184000	2.118258
6.185000	2.001016
6.186000	1.865092
6.187000	1.612248
6.188000	1.482444
6.189000	1.474391
6.190000	1.375830
6.191000	1.264386
6.192000	1.236686
6.193000	1.240873
6.194000	1.232498
6.195000	1.167757
6.196000	1.131039
6.197000	1.135548
6.198000	1.215105
6.199000	1.297561
6.200000	1.365845
6.201000	1.412871
6.202000	1.465373
6.203000	1.480511
6.204000	1.454743
6.205000	1.429942
6.206000	1.414482
6.207000	1.503702
6.208000	1.594210
6.209000	1.711453
6.210000	2.018087
6.211000	2.257726
6.212000	2.370781
6.213000	2.344047
6.214000	2.243231
6.215000	2.026461
6.216000	1.751715
6.217000	1.557814
6.218000	1.345553
6.219000	1.203188
6.220000	1.153907
6.221000	1.096897
6.222000	1.056635
6.223000	1.085623
6.224000	1.147787
6.225000	1.199323
6.226000	1.253757
6.227000	1.297239
6.228000	1.379695
6.229000	1.367778
6.230000	1.315277
6.231000	1.286288
6.232000	1.333314
6.233000	1.467305
6.234000	1.739153
6.235000	2.065757
6.236000	2.260302
6.237000	2.299920
6.238000	2.246452
6.239000	2.008424
6.240000	1.788755
6.241000	1.712419
6.242000	1.630929
6.243000	1.513043
6.244000	1.484376
6.245000	1.429620
6.246000	1.411905
6.247000	1.384527
6.248000	1.370033
6.249000	1.453455
6.250000	1.700179
6.251000	1.929511
6.252000	2.229381
6.253000	2.341792
6.254000	2.356931
6.255000	2.307650
6.256000	2.341148
6.257000	2.419095
6.258000	2.444541
6.259000	2.422638
6.260000	2.165284
6.261000	1.679888
6.262000	1.203510
6.263000	0.890756
6.264000	0.756443
6.265000	0.704908
6.266000	0.718758
6.267000	0.802180
6.268000	0.883670
6.269000	0.921033
6.270000	0.927153
6.271000	0.945190
6.272000	1.000268
6.273000	1.064365
6.274000	1.176132
6.275000	1.303037
6.276000	1.424144
6.277000	1.516908
6.278000	1.609027
6.279000	1.779737
6.280000	1.872822
6.281000	1.925324
6.282000	1.952702
6.283000	1.991353
6.284000	1.998761
6.285000	1.944971
6.286000	1.828695
6.287000	1.855107
6.288000	1.884096
6.289000	1.996184
6.290000	2.147891
6.291000	2.248707
6.292000	2.264490
6.293000	2.170760
6.294000	1.946260
6.295000	1.663139
6.296000	1.441215
6.297000	1.313666
6.298000	1.256655
6.299000	1.169690
6.300000	1.104305
6.301000	1.058567
6.302000	1.054058
6.303000	1.160349
6.304000	1.339756
6.305000	1.473747
6.306000	1.560390
6.307000	1.609671
6.308000	1.680210
6.309000	1.794231
6.310000	2.166573
6.311000	2.408466
6.312000	2.449050
6.313000	2.406211
6.314000	2.175913
6.315000	1.671191
6.316000	1.363913
6.317000	1.227667
6.318000	1.236686
6.319000	1.269861
6.320000	1.279202
6.321000	1.161638
6.322000	1.023137
6.323000	0.932628
6.324000	0.925220
6.325000	0.959684
6.326000	1.045039
6.327000	1.211240
6.328000	1.497260
6.329000	1.796808
6.330000	2.009390
6.331000	2.170116
6.332000	2.228737
6.333000	2.114071
6.334000	1.886994
6.335000	1.619978
6.336000	1.380984
6.337000	1.266640
6.338000	1.232176
6.339000	1.253434
6.340000	1.370033
6.341000	1.437672
6.342000	1.516263
6.343000	1.507567
6.344000	1.467305
6.345000	1.474391
6.346000	1.529791
6.347000	1.610959
6.348000	1.655408
6.349000	1.650899
6.350000	1.589057
6.351000	1.613536
6.352000	1.697603
6.353000	1.716928
6.354000	1.696959
6.355000	1.696959
6.356000	1.780381
6.357000	1.842223
6.358000	1.920170
6.359000	1.912118
6.360000	1.787789
6.361000	1.586802
6.362000	1.312056
6.363000	1.144889
6.364000	1.109780
6.365000	1.267929
6.366000	1.527215
6.367000	1.825474
6.368000	2.081862
6.369000	2.345335
6.370000	2.396871
6.371000	2.340504
6.372000	2.137906
6.373000	1.782958
6.374000	1.409972
6.375000	1.183862
6.376000	1.096897
6.377000	1.046650
6.378000	1.046328
6.379000	1.092709
6.380000	1.170656
6.381000	1.253434
6.382000	1.329127
6.383000	1.354572
6.384000	1.379695
6.385000	1.356183
6.386000	1.416736
6.387000	1.510466
6.388000	1.651865
6.389000	1.841901
6.390000	1.979113
6.391000	2.030971
6.392000	2.086693
6.393000	2.097000
6.394000	1.998117
6.395000	1.896657
6.396000	1.896335
6.397000	1.899234
6.398000	1.728202
6.399000	1.481799
6.400000	1.319142
6.401000	1.321396
6.402000	1.325261
6.403000	1.338789
6.404000	1.360048
6.405000	1.382272
6.406000	1.403853
6.407000	1.392257
6.408000	1.358115
6.409000	1.279202
6.410000	1.230244
6.411000	1.271794
6.412000	1.323973
6.413000	1.290797
6.414000	1.251180
6.415000	1.299172
6.416000	1.384849
6.417000	1.484376
6.418000	1.559746
6.419000	1.608705
6.420000	1.672801
6.421000	1.662172
6.422000	1.613858
6.423000	1.574240
6.424000	1.514975
6.425000	1.490496
6.426000	1.640592
6.427000	1.795197
6.428000	1.950769
6.429000	2.035158
6.430000	1.996829
6.431000	1.848665
6.432000	1.667970
6.433000	1.594532
6.434000	1.545896
6.435000	1.509822
6.436000	1.504024
6.437000	1.471814
6.438000	1.428976
6.439000	1.386459
6.440000	1.469560
6.441000	1.591634
6.442000	1.652832
6.443000	1.616113
6.444000	1.606450
6.445000	1.674412
6.446000	1.669580
6.447000	1.631573
6.448000	1.507245
6.449000	1.424144
6.450000	1.393223
6.451000	1.395478
6.452000	1.500803
6.453000	1.741730
6.454000	1.924035
6.455000	1.916305
6.456000	1.846410
6.457000	1.796164
6.458000	1.665393
6.459000	1.571986
6.460000	1.490496
6.461000	1.469882
6.462000	1.621588
6.463000	1.816456
6.464000	1.882485
6.465000	1.869279
6.466000	1.857040
6.467000	1.921136
6.468000	1.907608
6.469000	1.877009
6.470000	1.786823
6.471000	1.649611
6.472000	1.569087
6.473000	1.623843
6.474000	1.688906
6.475000	1.722404
6.476000	1.601941
6.477000	1.422212
6.478000	1.229277
6.479000	0.970314
6.480000	0.798637
6.481000	0.740338
6.482000	0.745170
6.483000	0.810555
6.484000	0.968059
6.485000	1.150042
6.486000	1.324617
6.487000	1.381950
6.488000	1.424144
6.489000	1.480189
6.490000	1.572308
6.491000	1.714352
6.492000	1.849953
6.493000	1.871856
6.494000	1.806793
6.495000	1.815167
6.496000	1.863804
6.497000	1.759767
6.498000	1.736576
6.499000	1.886350
6.500000	2.084116
6.501000	2.128888
6.502000	2.082506
6.503000	2.013900
6.504000	1.794231
6.505000	1.531402
6.506000	1.410294
6.507000	1.352962
6.508000	1.388070
6.509000	1.426399
6.510000	1.514653
6.511000	1.544286
6.512000	1.660562
6.513000	1.736898
6.514000	1.700179
6.515000	1.614180
6.516000	1.552660
6.517000	1.624809
6.518000	1.710164
6.519000	1.661206
6.520000	1.685363
6.521000	1.857362
6.522000	1.948514
6.523000	1.957533
6.524000	1.868635
6.525000	1.691805
6.526000	1.481155
6.527000	1.478256
6.528000	1.474069
6.529000	1.582937
6.530000	1.700502
6.531000	1.751393
6.532000	1.781025
6.533000	1.625776
6.534000	1.478578
6.535000	1.339112
6.536000	1.304325
6.537000	1.264386
6.538000	1.228311
6.539000	1.212528
6.540000	1.254401
6.541000	1.297883
6.542000	1.326550
6.543000	1.383238
6.544000	1.455710
6.545000	1.524316
6.546000	1.566188
6.547000	1.554915
6.548000	1.544608
6.549000	1.434451
6.550000	1.335246
6.551000	1.270505
6.552000	1.257300
6.553000	1.332025
6.554000	1.440571
6.555000	1.589057
6.556000	1.738831
6.557000	1.825152
6.558000	1.759767
6.559000	1.642525
6.560000	1.583259
6.561000	1.517874
6.562000	1.507889
6.563000	1.512398
6.564000	1.743340
6.565000	2.036768
6.566000	2.240655
6.567000	2.346302
6.568000	2.322145
6.569000	2.150790
6.570000	1.819032
6.571000	1.562001
6.572000	1.366167
6.573000	1.211240
6.574000	1.112035
6.575000	1.023137
6.576000	0.979976
6.577000	0.929730
6.578000	0.922644
6.579000	0.972568
6.580000	1.025070
6.581000	1.153263
6.582000	1.279846
6.583000	1.440249
6.584000	1.616435
6.585000	1.725947
6.586000	1.806149
6.587000	1.927900
6.588000	2.185898
6.589000	2.315381
6.590000	2.265778
6.591000	2.163996
6.592000	2.073809
6.593000	1.842867
6.594000	1.518196
6.595000	1.281779
6.596000	1.237330
6.597000	1.375830
6.598000	1.592600
6.599000	1.669903
6.600000	1.708232
6.601000	1.758479
6.602000	1.884096
6.603000	1.957533
6.604000	1.928545
6.605000	1.860261
6.606000	1.772329
6.607000	1.680532
6.608000	1.552016
6.609000	1.460541
6.610000	1.439927
6.611000	1.456998
6.612000	1.520773
6.613000	1.846733
6.614000	2.313448
6.615000	2.397837
6.616000	2.376901
6.617000	2.208767
6.618000	1.821609
6.619000	1.416736
6.620000	1.129428
6.621000	1.044395
6.622000	1.138769
6.623000	1.154551
6.624000	1.134904
6.625000	1.074350
6.626000	1.005100
6.627000	0.965804
6.628000	0.970314
6.629000	1.009609
6.630000	1.104949
6.631000	1.143278
6.632000	1.187083
6.633000	1.294340
6.634000	1.466661
6.635000	1.652187
6.636000	1.773617
6.637000	1.936919
6.638000	2.077030
6.639000	2.373680
6.640000	2.458069
6.641000	2.454526
6.642000	2.393005
6.643000	2.163030
6.644000	1.791332
6.645000	1.476646
6.646000	1.283389
6.647000	1.132005
6.648000	1.081436
6.649000	1.054702
6.650000	1.037953
6.651000	1.030223
6.652000	1.045361
6.653000	1.075316
6.654000	1.115900
6.655000	1.171945
6.656000	1.255689
6.657000	1.339434
6.658000	1.472781
6.659000	1.673446
6.660000	1.811946
6.661000	1.911796
6.662000	1.981046
6.663000	1.991675
6.664000	2.062214
6.665000	2.096034
6.666000	2.084761
6.667000	2.006814
6.668000	1.920814
6.669000	1.802283
6.670000	1.700179
6.671000	1.599042
6.672000	1.448624
6.673000	1.346520
6.674000	1.284678
6.675000	1.264386
6.676000	1.315599
6.677000	1.351351
6.678000	1.412227
6.679000	1.491140
6.680000	1.594210
6.681000	1.772007
6.682000	1.931766
6.683000	2.229059
6.684000	2.347268
6.685000	2.335028
6.686000	2.206835
6.687000	1.974604
6.688000	1.676344
6.689000	1.437350
6.690000	1.384527
6.691000	1.357149
6.692000	1.272438
6.693000	1.158417
6.694000	1.117833
6.695000	1.180319
6.696000	1.396122
6.697000	1.650577
6.698000	1.717895
6.699000	1.646390
6.700000	1.554915
6.701000	1.506279
6.702000	1.497582
6.703000	1.490496
6.704000	1.614180
6.705000	1.728202
6.706000	1.748172
6.707000	1.661206
6.708000	1.510144
6.709000	1.407718
6.710000	1.396766
6.711000	1.428976
6.712000	1.540743
6.713000	1.605484
6.714000	1.560068
6.715000	1.506601
6.716000	1.455388
6.717000	1.400632
6.718000	1.326872
6.719000	1.365201
6.720000	1.573274
6.721000	1.695348
6.722000	1.638981
6.723000	1.473747
6.724000	1.407396
6.725000	1.381306
6.726000	1.413193
6.727000	1.506923
6.728000	1.724337
6.729000	2.088626
6.730000	2.296055
6.731000	2.250639
6.732000	2.039023
6.733000	1.778771
6.734000	1.582937
6.735000	1.414160
6.736000	1.316565
6.737000	1.292086
6.738000	1.324617
6.739000	1.305936
6.740000	1.365845
6.741000	1.399343
6.742000	1.384849
6.743000	1.389680
6.744000	1.358759
6.745000	1.450556
6.746000	1.613858
6.747000	1.819999
6.748000	1.967518
6.749000	2.041278
6.750000	1.984911
6.751000	1.860905
6.752000	1.788433
6.753000	1.619978
6.754000	1.511432
6.755000	1.407718
6.756000	1.259876
6.757000	1.130072
6.758000	1.096897
6.759000	1.164536
6.760000	1.369388
6.761000	1.659596
6.762000	1.869279
6.763000	1.963653
6.764000	2.026461
6.765000	2.077674
6.766000	2.008424
6.767000	2.019697
6.768000	1.947870
6.769000	1.766209
6.770000	1.686007
6.771000	1.727558
6.772000	1.953346
6.773000	2.111494
6.774000	2.090880
6.775000	1.937885
6.776000	1.657019
6.777000	1.300782
6.778000	1.093354
6.779000	1.064687
6.780000	1.085301
6.781000	1.094320
6.782000	1.123952
6.783000	1.113968
6.784000	1.137480
6.785000	1.176776
6.786000	1.174843
6.787000	1.166147
6.788000	1.143922
6.789000	1.256011
6.790000	1.457964
6.791000	1.577784
6.792000	1.719505
6.793000	1.835137
6.794000	1.946582
6.795000	1.999728
6.796000	1.949159
6.797000	1.850276
6.798000	1.629963
6.799000	1.522061
6.800000	1.485665
6.801000	1.543964
6.802000	1.660562
6.803000	1.873144
6.804000	2.165928
6.805000	2.264812
6.806000	2.228415
6.807000	2.050619
6.808000	1.878620
6.809000	1.732067
6.810000	1.481799
6.811000	1.331703
6.812000	1.249569
6.813000	1.133615
6.814000	1.112679
6.815000	1.135548
6.816000	1.183540
6.817000	1.164536
6.818000	1.132971
6.819000	1.160671
6.820000	1.190948
6.821000	1.230244
6.822000	1.275015
6.823000	1.341688
6.824000	1.393868
6.825000	1.404819
6.826000	1.415770
6.827000	1.438639
6.828000	1.494361
6.829000	1.643491
6.830000	1.779415
6.831000	1.927900
6.832000	2.088948
6.833000	2.131786
6.834000	2.124700
6.835000	2.083472
6.836000	1.902777
6.837000	1.696959
6.838000	1.468916
6.839000	1.261487
6.840000	1.199967
6.841000	1.201899
6.842000	1.304647
6.843000	1.448624
6.844000	1.509822
6.845000	1.459253
6.846000	1.367456
6.847000	1.323007
6.848000	1.305614
6.849000	1.299494
6.850000	1.351673
6.851000	1.409650
6.852000	1.451845
6.853000	1.566510
6.854000	1.800029
6.855000	2.119225
6.856000	2.402024
6.857000	2.494143
6.858000	2.500263
6.859000	2.771145
6.860000	2.772112
6.861000	2.770823
6.862000	2.671296
6.863000	2.475140
6.864000	1.867991
6.865000	1.295307
6.866000	1.007676
6.867000	0.922966
6.868000	0.881415
6.869000	0.863700
6.870000	0.836000
6.871000	0.835678
6.872000	0.831491
6.873000	0.841798
6.874000	0.875296
6.875000	0.955175
6.876000	1.045039
6.877000	1.184184
6.878000	1.384527
6.879000	1.538488
6.880000	1.563289
6.881000	1.648966
6.882000	1.742374
6.883000	1.774583
6.884000	1.687618
6.885000	1.518518
6.886000	1.318175
6.887000	1.191592
6.888000	1.211884
6.889000	1.383238
6.890000	1.717895
6.891000	1.969129
6.892000	2.159809
6.893000	2.216175
6.894000	2.168505
6.895000	2.081218
6.896000	1.941106
6.897000	1.818066
6.898000	1.822253
6.899000	2.095712
6.900000	2.358219
6.901000	2.412653
6.902000	2.315381
6.903000	2.041922
6.904000	1.716606
6.905000	1.485665
6.906000	1.394834
6.907000	1.320108
6.908000	1.329449
6.909000	1.308835
6.910000	1.249891
6.911000	1.157450
6.912000	1.108170
6.913000	1.120087
6.914000	1.146821
6.915000	1.201255
6.916000	1.240873
6.917000	1.246670
6.918000	1.202221
6.919000	1.224446
6.920000	1.305936
6.921000	1.398699
6.922000	1.549761
6.923000	1.703723
6.924000	1.856073
6.925000	1.917271
6.926000	1.909863
6.927000	1.960110
6.928000	2.094423
6.929000	2.266422
6.930000	2.319246
6.931000	2.229703
6.932000	2.028716
6.933000	1.834171
6.934000	1.622555
6.935000	1.307546
6.936000	1.149398
6.937000	1.163570
6.938000	1.185795
6.939000	1.214783
6.940000	1.278558
6.941000	1.479545
6.942000	1.574240
6.943000	1.527859
6.944000	1.508855
6.945000	1.494683
6.946000	1.500481
6.947000	1.561357
6.948000	1.495327
6.949000	1.509822
6.950000	1.581649
6.951000	1.622555
6.952000	1.609671
6.953000	1.564578
6.954000	1.550406
6.955000	1.682786
6.956000	1.747205
6.957000	1.719827
6.958000	1.704689
6.959000	1.564578
6.960000	1.395156
6.961000	1.227667
6.962000	1.097863
6.963000	0.976755
6.964000	0.924898
6.965000	0.962583
6.966000	1.069519
6.967000	1.244738
6.968000	1.549439
6.969000	1.909863
6.970000	2.118258
6.971000	2.106019
6.972000	2.041600
6.973000	2.099255
6.974000	2.077030
6.975000	1.884418
6.976000	1.634472
6.977000	1.526248
6.978000	1.496616
6.979000	1.552660
6.980000	1.542997
6.981000	1.510144
6.982000	1.421246
6.983000	1.381306
6.984000	1.398699
6.985000	1.389680
6.986000	1.457320
6.987000	1.608705
6.988000	1.752681
6.989000	1.851242
6.990000	1.817100
6.991000	1.670225
6.992000	1.592278
6.993000	1.560713
6.994000	1.427688
6.995000	1.256655
6.996000	1.188049
6.997000	1.177098
6.998000	1.246026
6.999000	1.319786
7.000000	1.402564
7.001000	1.523350
7.002000	1.693738
7.003000	1.795197
7.004000	1.814845
7.005000	1.827085
7.006000	1.807759
7.007000	1.762344
7.008000	1.762666
7.009000	1.721116
7.010000	1.707588
7.011000	1.710164
7.012000	1.695026
7.013000	1.606450
7.014000	1.528181
7.015000	1.406107
7.016000	1.301749
7.017000	1.235397
7.018000	1.210918
7.019000	1.309157
7.020000	1.405463
7.021000	1.452811
7.022000	1.406429
7.023000	1.422856
7.024000	1.515619
7.025000	1.713707
7.026000	2.100221
7.027000	2.442286
7.028000	2.504128
7.029000	2.497686
7.030000	2.448084
7.031000	2.027106
7.032000	1.443470
7.033000	1.104305
7.034000	1.009287
7.035000	0.983197
7.036000	0.981265
7.037000	1.053092
7.038000	1.164536
7.039000	1.229277
7.040000	1.321396
7.041000	1.456676
7.042000	1.523027
7.043000	1.527859
7.044000	1.494039
7.045000	1.430586
7.046000	1.493395
7.047000	1.882163
7.048000	2.244842
7.049000	2.389140
7.050000	2.391073
7.051000	2.312482
7.052000	2.218752
7.053000	2.064469
7.054000	1.880230
7.055000	1.656697
7.056000	1.428332
7.057000	1.298528
7.058000	1.297883
7.059000	1.297239
7.060000	1.232498
7.061000	1.178386
7.062000	1.213495
7.063000	1.266640
7.064000	1.285966
7.065000	1.329127
7.066000	1.297883
7.067000	1.331381
7.068000	1.322363
7.069000	1.331381
7.070000	1.295307
7.071000	1.303359
7.072000	1.297239
7.073000	1.294985
7.074000	1.304647
7.075000	1.337179
7.076000	1.349096
7.077000	1.408684
7.078000	1.405785
7.079000	1.529469
7.080000	1.756224
7.081000	1.910185
7.082000	1.935631
7.083000	1.806793
7.084000	1.637049
7.085000	1.456032
7.086000	1.350707
7.087000	1.332992
7.088000	1.429298
7.089000	1.573274
7.090000	1.680854
7.091000	1.746883
7.092000	1.813235
7.093000	1.845122
7.094000	1.812913
7.095000	1.750426
7.096000	1.665393
7.097000	1.578106
7.098000	1.639626
7.099000	1.758479
7.100000	1.826441
7.101000	1.834815
7.102000	1.827729
7.103000	1.803250
7.104000	1.650255
7.105000	1.444759
7.106000	1.281779
7.107000	1.187405
7.108000	1.211240
7.109000	1.449268
7.110000	1.740763
7.111000	1.904387
7.112000	1.973316
7.113000	2.008746
7.114000	2.036124
7.115000	2.117292
7.116000	2.156588
7.117000	2.145314
7.118000	2.049974
7.119000	1.889249
7.120000	1.529791
7.121000	1.250858
7.122000	1.025714
7.123000	0.919101
7.124000	0.867888
7.125000	0.866277
7.126000	0.887535
7.127000	0.962583
7.128000	1.079503
7.129000	1.180319
7.130000	1.285644
7.131000	1.396122
7.132000	1.492106
7.133000	1.597753
7.134000	1.768141
7.135000	2.003915
7.136000	2.165928
7.137000	2.125022
7.138000	1.943683
7.139000	1.773295
7.140000	1.563611
7.141000	1.455388
7.142000	1.411261
7.143000	1.333958
7.144000	1.279202
7.145000	1.282423
7.146000	1.329127
7.147000	1.372931
7.148000	1.485987
7.149000	1.720794
7.150000	1.926290
7.151000	1.986522
7.152000	1.892792
7.153000	1.730456
7.154000	1.505956
7.155000	1.312378
7.156000	1.233787
7.157000	1.222513
7.158000	1.308513
7.159000	1.447979
7.160000	1.583581
7.161000	1.692127
7.162000	1.737865
7.163000	1.740763
7.164000	1.650255
7.165000	1.583903
7.166000	1.631895
7.167000	1.654442
7.168000	1.678277
7.169000	1.742374
7.170000	1.929833
7.171000	2.100865
7.172000	2.096356
7.173000	1.953346
7.174000	1.740441
7.175000	1.688262
7.176000	1.665393
7.177000	1.634794
7.178000	1.585514
7.179000	1.516908
7.180000	1.462474
7.181000	1.383561
7.182000	1.345553
7.183000	1.465695
7.184000	1.874755
7.185000	2.291223
7.186000	2.422960
7.187000	2.433589
7.188000	2.320856
7.189000	1.925968
7.190000	1.473425
7.191000	1.096897
7.192000	0.967737
7.193000	0.948089
7.194000	0.984164
7.195000	1.008643
7.196000	1.027968
7.197000	1.015729
7.198000	1.047294
7.199000	1.172911
7.200000	1.284678
7.201000	1.347808
7.202000	1.393868
7.203000	1.446691
7.204000	1.488241
7.205000	1.440893
7.206000	1.480833
7.207000	1.549439
7.208000	1.579072
7.209000	1.559102
7.210000	1.557169
7.211000	1.583581
7.212000	1.614180
7.213000	1.583581
7.214000	1.554271
7.215000	1.520129
7.216000	1.542675
7.217000	1.601296
7.218000	1.687618
7.219000	1.701468
7.220000	1.638659
7.221000	1.554593
7.222000	1.468916
7.223000	1.471492
7.224000	1.570053
7.225000	1.682786
7.226000	1.736898
7.227000	1.759445
7.228000	1.727558
7.229000	1.671835
7.230000	1.669580
7.231000	1.689228
7.232000	1.877654
7.233000	2.158842
7.234000	2.302497
7.235000	2.282849
7.236000	2.091847
7.237000	1.792621
7.238000	1.504990
7.239000	1.311411
7.240000	1.170978
7.241000	1.158417
7.242000	1.272438
7.243000	1.414804
7.244000	1.554915
7.245000	1.669903
7.246000	1.687296
7.247000	1.624165
7.248000	1.532046
7.249000	1.405463
7.250000	1.286610
7.251000	1.217038
7.252000	1.184184
7.253000	1.231210
7.254000	1.460863
7.255000	1.727235
7.256000	1.906964
7.257000	1.889571
7.258000	1.762344
7.259000	1.629641
7.260000	1.575207
7.261000	1.587124
7.262000	1.562967
7.263000	1.465050
7.264000	1.343621
7.265000	1.291764
7.266000	1.395800
7.267000	1.562323
7.268000	1.708232
7.269000	1.786823
7.270000	1.770718
7.271000	1.671191
7.272000	1.575851
7.273000	1.447013
7.274000	1.390647
7.275000	1.415126
7.276000	1.511432
7.277000	1.567799
7.278000	1.596465
7.279000	1.646712
7.280000	1.622233
7.281000	1.546862
7.282000	1.533657
7.283000	1.517874
7.284000	1.484054
7.285000	1.456032
7.286000	1.464406
7.287000	1.495327
7.288000	1.528503
7.289000	1.638337
7.290000	1.864448
7.291000	2.020664
7.292000	2.076708
7.293000	2.064791
7.294000	1.909541
7.295000	1.600330
7.296000	1.301749
7.297000	1.166147
7.298000	1.154229
7.299000	1.201255
7.300000	1.303681
7.301000	1.361980
7.302000	1.397411
7.303000	1.391935
7.304000	1.413193
7.305000	1.402242
7.306000	1.445725
7.307000	1.572630
7.308000	1.702756
7.309000	1.757512
7.310000	1.746561
7.311000	1.701468
7.312000	1.658307
7.313000	1.536233
7.314000	1.399021
7.315000	1.282745
7.316000	1.215749
7.317000	1.231532
7.318000	1.291442
7.319000	1.428654
7.320000	1.622877
7.321000	1.705011
7.322000	1.688906
7.323000	1.607416
7.324000	1.562001
7.325000	1.596787
7.326000	1.638015
7.327000	1.704367
7.328000	1.726269
7.329000	1.745273
7.330000	1.828051
7.331000	1.849631
7.332000	1.825152
7.333000	1.823542
7.334000	1.744306
7.335000	1.706299
7.336000	1.714352
7.337000	1.711453
7.338000	1.676989
7.339000	1.705655
7.340000	1.680854
7.341000	1.628352
7.342000	1.618045
7.343000	1.531724
7.344000	1.412549
7.345000	1.275015
7.346000	1.265352
7.347000	1.299172
7.348000	1.372287
7.349000	1.438639
7.350000	1.509177
7.351000	1.610959
7.352000	1.698891
7.353000	1.756868
7.354000	1.917593
7.355000	2.073487
7.356000	2.161097
7.357000	2.076064
7.358000	1.831594
7.359000	1.458286
7.360000	1.208341
7.361000	1.082402
7.362000	1.046328
7.363000	1.033122
7.364000	1.050193
7.365000	1.105915
7.366000	1.201899
7.367000	1.244738
7.368000	1.264708
7.369000	1.316243
7.370000	1.367134
7.371000	1.405141
7.372000	1.424467
7.373000	1.463440
7.374000	1.499515
7.375000	1.537200
7.376000	1.570375
7.377000	1.586158
7.378000	1.610637
7.379000	1.624487
7.380000	1.681176
7.381000	1.708232
7.382000	1.716606
7.383000	1.726913
7.384000	1.770718
7.385000	1.787467
7.386000	1.838036
7.387000	1.874755
7.388000	1.834493
7.389000	1.750748
7.390000	1.692127
7.391000	1.669258
7.392000	1.768141
7.393000	1.798740
7.394000	1.751715
7.395000	1.721438
7.396000	1.678599
7.397000	1.666037
7.398000	1.633828
7.399000	1.491462
7.400000	1.434129
7.401000	1.467305
7.402000	1.514653
7.403000	1.539132
7.404000	1.552338
7.405000	1.628352
7.406000	1.915983
7.407000	2.236145
7.408000	2.315058
7.409000	2.173659
7.410000	1.883773
7.411000	1.610959
7.412000	1.359081
7.413000	1.174843
7.414000	1.055346
7.415000	0.990928
7.416000	0.999946
7.417000	1.032156
7.418000	1.092709
7.419000	1.161638
7.420000	1.256977
7.421000	1.365201
7.422000	1.452167
7.423000	1.501125
7.424000	1.501769
7.425000	1.540743
7.426000	1.635116
7.427000	1.719827
7.428000	1.792299
7.429000	1.789078
7.430000	1.708876
7.431000	1.595499
7.432000	1.501769
7.433000	1.520451
7.434000	1.637693
7.435000	1.723048
7.436000	1.727558
7.437000	1.663783
7.438000	1.541709
7.439000	1.354894
7.440000	1.279846
7.441000	1.314632
7.442000	1.357793
7.443000	1.455710
7.444000	1.568443
7.445000	1.592278
7.446000	1.606772
7.447000	1.575529
7.448000	1.555881
7.449000	1.610637
7.450000	1.783602
7.451000	1.949803
7.452000	2.066723
7.453000	2.084116
7.454000	2.018087
7.455000	1.840935
7.456000	1.565866
7.457000	1.374220
7.458000	1.271150
7.459000	1.234431
7.460000	1.210596
7.461000	1.248603
7.462000	1.335568
7.463000	1.422856
7.464000	1.506923
7.465000	1.602907
7.466000	1.727880
7.467000	1.789400
7.468000	1.769752
7.469000	1.780381
7.470000	1.789722
7.471000	1.741085
7.472000	1.732067
7.473000	1.654120
7.474000	1.567154
7.475000	1.581649
7.476000	1.625776
7.477000	1.633506
7.478000	1.651221
7.479000	1.783924
7.480000	1.964297
7.481000	2.060603
7.482000	1.958821
7.483000	1.781669
7.484000	1.595821
7.485000	1.454099
7.486000	1.332670
7.487000	1.300782
7.488000	1.326550
7.489000	1.320430
7.490000	1.282423
7.491000	1.263741
7.492000	1.297883
7.493000	1.298850
7.494000	1.305614
7.495000	1.374542
7.496000	1.466017
7.497000	1.495327
7.498000	1.491140
7.499000	1.496616
7.500000	1.490818
7.501000	1.560390
7.502000	1.651543
7.503000	1.726269
7.504000	1.748172
7.505000	1.737542
7.506000	1.734644
7.507000	1.743662
7.508000	1.625131
7.509000	1.476968
7.510000	1.400632
7.511000	1.336535
7.512000	1.290153
7.513000	1.306258
7.514000	1.399021
7.515000	1.513365
7.516000	1.591312
7.517000	1.658307
7.518000	1.720794
7.519000	1.763632
7.520000	1.766531
7.521000	1.689228
7.522000	1.558780
7.523000	1.542353
7.524000	1.527859
7.525000	1.491462
7.526000	1.443470
7.527000	1.368100
7.528000	1.462474
7.529000	1.587446
7.530000	1.632862
7.531000	1.621910
7.532000	1.614180
7.533000	1.636083
7.534000	1.574885
7.535000	1.476002
7.536000	1.409650
7.537000	1.365845
7.538000	1.352962
7.539000	1.353928
7.540000	1.375508
7.541000	1.439927
7.542000	1.543964
7.543000	1.632218
7.544000	1.639304
7.545000	1.629641
7.546000	1.614824
7.547000	1.593566
7.548000	1.572630
7.549000	1.564256
7.550000	1.573596
7.551000	1.590023
7.552000	1.678599
7.553000	1.730778
7.554000	1.733677
7.555000	1.750104
7.556000	1.798096
7.557000	1.769108
7.558000	1.678921
7.559000	1.611281
7.560000	1.571986
7.561000	1.539132
7.562000	1.519807
7.563000	1.545896
7.564000	1.579394
7.565000	1.601941
7.566000	1.579394
7.567000	1.515619
7.568000	1.411905
7.569000	1.352639
7.570000	1.311734
7.571000	1.269217
7.572000	1.286932
7.573000	1.344265
7.574000	1.427043
7.575000	1.495972
7.576000	1.575207
7.577000	1.677955
7.578000	1.836103
7.579000	1.969773
7.580000	1.991675
7.581000	1.976215
7.582000	1.944005
7.583000	1.874433
7.584000	1.748494
7.585000	1.582615
7.586000	1.493073
7.587000	1.455066
7.588000	1.461830
7.589000	1.516263
7.590000	1.539454
7.591000	1.517552
7.592000	1.428332
7.593000	1.370033
7.594000	1.334602
7.595000	1.284355
7.596000	1.309479
7.597000	1.394190
7.598000	1.579394
7.599000	1.837070
7.600000	2.081540
7.601000	2.197816
7.602000	2.272542
7.603000	2.331485
7.604000	2.290257
7.605000	2.047720
7.606000	1.693738
7.607000	1.391613
7.608000	1.283711
7.609000	1.253757
7.610000	1.304003
7.611000	1.340078
7.612000	1.317209
7.613000	1.207053
7.614000	1.112035
7.615000	1.077893
7.616000	1.113968
7.617000	1.213173
7.618000	1.351029
7.619000	1.421568
7.620000	1.432197
7.621000	1.404819
7.622000	1.380340
7.623000	1.418669
7.624000	1.537200
7.625000	1.716928
7.626000	1.828373
7.627000	1.851886
7.628000	1.842223
7.629000	1.765887
7.630000	1.775550
7.631000	1.802928
7.632000	1.783924
7.633000	1.733999
7.634000	1.662494
7.635000	1.545252
7.636000	1.423822
7.637000	1.328805
7.638000	1.250213
7.639000	1.235719
7.640000	1.265674
7.641000	1.316887
7.642000	1.370033
7.643000	1.397733
7.644000	1.436384
7.645000	1.504990
7.646000	1.717250
7.647000	1.929833
7.648000	1.999728
7.649000	1.887639
7.650000	1.734321
7.651000	1.629319
7.652000	1.582293
7.653000	1.533012
7.654000	1.493395
7.655000	1.472781
7.656000	1.462474
7.657000	1.487597
7.658000	1.528181
7.659000	1.590667
7.660000	1.742696
7.661000	1.892470
7.662000	1.999083
7.663000	2.040956
7.664000	2.054484
7.665000	1.929511
7.666000	1.754613
7.667000	1.513043
7.668000	1.267929
7.669000	1.176132
7.670000	1.202544
7.671000	1.272438
7.672000	1.334602
7.673000	1.454099
7.674000	1.574240
7.675000	1.760411
7.676000	1.931121
7.677000	2.041278
7.678000	1.973316
7.679000	1.792943
7.680000	1.546862
7.681000	1.368422
7.682000	1.419313
7.683000	1.555237
7.684000	1.656375
7.685000	1.701146
7.686000	1.652187
7.687000	1.577461
7.688000	1.529147
7.689000	1.460541
7.690000	1.364879
7.691000	1.320430
7.692000	1.363591
7.693000	1.376474
7.694000	1.411583
7.695000	1.517230
7.696000	1.580682
7.697000	1.560068
7.698000	1.482444
7.699000	1.464084
7.700000	1.456998
7.701000	1.440571
7.702000	1.405463
7.703000	1.329771
7.704000	1.225090
7.705000	1.235719
7.706000	1.295307
7.707000	1.385171
7.708000	1.480511
7.709000	1.579072
7.710000	1.665071
7.711000	1.703400
7.712000	1.722726
7.713000	1.733033
7.714000	1.719505
7.715000	1.699857
7.716000	1.667004
7.717000	1.655408
7.718000	1.665393
7.719000	1.650899
7.720000	1.608060
7.721000	1.502736
7.722000	1.372931
7.723000	1.280490
7.724000	1.250858
7.725000	1.332992
7.726000	1.567154
7.727000	1.858972
7.728000	2.033870
7.729000	2.039023
7.730000	1.977825
7.731000	1.889893
7.732000	1.747205
7.733000	1.562001
7.734000	1.493395
7.735000	1.487597
7.736000	1.458286
7.737000	1.434774
7.738000	1.364235
7.739000	1.343943
7.740000	1.348774
7.741000	1.351029
7.742000	1.341688
7.743000	1.347486
7.744000	1.390002
7.745000	1.395800
7.746000	1.317853
7.747000	1.291119
7.748000	1.380662
7.749000	1.516263
7.750000	1.631895
7.751000	1.711453
7.752000	1.736576
7.753000	1.696314
7.754000	1.667326
7.755000	1.748172
7.756000	1.915017
7.757000	2.127277
7.758000	2.372069
7.759000	2.433267
7.760000	2.408144
7.761000	2.235823
7.762000	1.865736
7.763000	1.489530
7.764000	1.315277
7.765000	1.222191
7.766000	1.257622
7.767000	1.337501
7.768000	1.330737
7.769000	1.233142
7.770000	1.154874
7.771000	1.140701
7.772000	1.269539
7.773000	1.401276
7.774000	1.506923
7.775000	1.574240
7.776000	1.594855
7.777000	1.609993
7.778000	1.641236
7.779000	1.683753
7.780000	1.672157
7.781000	1.645423
7.782000	1.614180
7.783000	1.535589
7.784000	1.461830
7.785000	1.411905
7.786000	1.412227
7.787000	1.392257
7.788000	1.381628
7.789000	1.397411
7.790000	1.411261
7.791000	1.418347
7.792000	1.400954
7.793000	1.437028
7.794000	1.570697
7.795000	1.780703
7.796000	1.870890
7.797000	1.877976
7.798000	1.883129
7.799000	1.816134
7.800000	1.673124
7.801000	1.478578
7.802000	1.393868
7.803000	1.364235
7.804000	1.396444
7.805000	1.481477
7.806000	1.559102
7.807000	1.578428
7.808000	1.516263
7.809000	1.459897
7.810000	1.420924
7.811000	1.408684
7.812000	1.428332
7.813000	1.478256
7.814000	1.537522
7.815000	1.440249
7.816000	1.276625
7.817000	1.169368
7.818000	1.213173
7.819000	1.388070
7.820000	1.538166
7.821000	1.660562
7.822000	1.819677
7.823000	1.997473
7.824000	2.104730
7.825000	2.134041
7.826000	2.129854
7.827000	2.110528
7.828000	1.971061
7.829000	1.875399
7.830000	1.896335
7.831000	2.038057
7.832000	2.013256
7.833000	1.829984
7.834000	1.477612
7.835000	1.187083
7.836000	1.078859
7.837000	1.027968
7.838000	0.983841
7.839000	0.993826
7.840000	1.080148
7.841000	1.192236
7.842000	1.362624
7.843000	1.513043
7.844000	1.627708
7.845000	1.754291
7.846000	1.860905
7.847000	1.873788
7.848000	1.842223
7.849000	1.818066
7.850000	1.757834
7.851000	1.677955
7.852000	1.619334
7.853000	1.544608
7.854000	1.493717
7.855000	1.588413
7.856000	1.615147
7.857000	1.564578
7.858000	1.497582
7.859000	1.480833
7.860000	1.485020
7.861000	1.494039
7.862000	1.534301
7.863000	1.658951
7.864000	1.930155
7.865000	2.088304
7.866000	2.126955
7.867000	2.004237
7.868000	1.724337
7.869000	1.492751
7.870000	1.423500
7.871000	1.381306
7.872000	1.338145
7.873000	1.311411
7.874000	1.349741
7.875000	1.445081
7.876000	1.501447
7.877000	1.428010
7.878000	1.396444
7.879000	1.421890
7.880000	1.442826
7.881000	1.537844
7.882000	1.705011
7.883000	1.821931
7.884000	1.858006
7.885000	1.860261
7.886000	1.784246
7.887000	1.609027
7.888000	1.446369
7.889000	1.319464
7.890000	1.259232
7.891000	1.270505
7.892000	1.294663
7.893000	1.382272
7.894000	1.475680
7.895000	1.488885
7.896000	1.555559
7.897000	1.606128
7.898000	1.644779
7.899000	1.595177
7.900000	1.466017
7.901000	1.306258
7.902000	1.198678
7.903000	1.199000
7.904000	1.344587
7.905000	1.546540
7.906000	1.733033
7.907000	1.899878
7.908000	1.958821
7.909000	1.906320
7.910000	1.848665
7.911000	1.773295
7.912000	1.646390
7.913000	1.507245
7.914000	1.523027
7.915000	1.707910
7.916000	1.853819
7.917000	1.877009
7.918000	1.810980
7.919000	1.755902
7.920000	1.651221
7.921000	1.535267
7.922000	1.382272
7.923000	1.320430
7.924000	1.435096
7.925000	1.516908
7.926000	1.490818
7.927000	1.392257
7.928000	1.279524
7.929000	1.215749
7.930000	1.214461
7.931000	1.192236
7.932000	1.257622
7.933000	1.349419
7.934000	1.457320
7.935000	1.574563
7.936000	1.677955
7.937000	1.756868
7.938000	1.850276
7.939000	1.987166
7.940000	2.083150
7.941000	2.105375
7.942000	2.115037
7.943000	2.114715
7.944000	1.977825
7.945000	1.932732
7.946000	1.854463
7.947000	1.744629
7.948000	1.712097
7.949000	1.680854
7.950000	1.600974
7.951000	1.614180
7.952000	1.567154
7.953000	1.450556
7.954000	1.341366
7.955000	1.277269
7.956000	1.189660
7.957000	1.100762
7.958000	1.067908
7.959000	1.074350
7.960000	1.126529
7.961000	1.226701
7.962000	1.325261
7.963000	1.370999
7.964000	1.405463
7.965000	1.445403
7.966000	1.480833
7.967000	1.520451
7.968000	1.589379
7.969000	1.746883
7.970000	2.013256
7.971000	2.372069
7.972000	2.489634
7.973000	2.492533
7.974000	2.428114
7.975000	2.110850
7.976000	1.589057
7.977000	1.291764
7.978000	1.155196
7.979000	1.101084
7.980000	1.121054
7.981000	1.144889
7.982000	1.177742
7.983000	1.207697
7.984000	1.278558
7.985000	1.357793
7.986000	1.417380
7.987000	1.494683
7.988000	1.560713
7.989000	1.616435
7.990000	1.633506
7.991000	1.587446
7.992000	1.543319
7.993000	1.531724
7.994000	1.481799
7.995000	1.411583
7.996000	1.272438
7.997000	1.201255
7.998000	1.171945
7.999000	1.228311
8.000000	1.346842
8.001000	1.481155
8.002000	1.614824
8.003000	1.728846
8.004000	1.775550
8.005000	1.748494
8.006000	1.719505
8.007000	1.703400
8.008000	1.725947
8.009000	1.681498
8.010000	1.658629
8.011000	1.670547
8.012000	1.641236
8.013000	1.661528
8.014000	1.654120
8.015000	1.690839
8.016000	1.799707
8.017000	1.804216
8.018000	1.773939
8.019000	1.804216
8.020000	1.817100
8.021000	1.824830
8.022000	1.715318
8.023000	1.570053
8.024000	1.479223
8.025000	1.538166
8.026000	1.604839
8.027000	1.662494
8.028000	1.761700
8.029000	1.919848
8.030000	2.009068
8.031000	1.873466
8.032000	1.693415
8.033000	1.550083
8.034000	1.423822
8.035000	1.383883
8.036000	1.514975
8.037000	1.651865
8.038000	1.829662
8.039000	2.000694
8.040000	2.145314
8.041000	2.112461
8.042000	1.926934
8.043000	1.664749
8.044000	1.400632
8.045000	1.310445
8.046000	1.264386
8.047000	1.245704
8.048000	1.305936
8.049000	1.343299
8.050000	1.286610
8.051000	1.257300
8.052000	1.214461
8.053000	1.220259
8.054000	1.202544
8.055000	1.246348
8.056000	1.317209
8.057000	1.464406
8.058000	1.748816
8.059000	1.901489
8.060000	1.878620
8.061000	1.782636
8.062000	1.642202
8.063000	1.517230
8.064000	1.463762
8.065000	1.535589
8.066000	1.591956
8.067000	1.621588
8.068000	1.656375
8.069000	1.610315
8.070000	1.584225
8.071000	1.541065
8.072000	1.534301
8.073000	1.504990
8.074000	1.491784
8.075000	1.485665
8.076000	1.364879
8.077000	1.239262
8.078000	1.182252
8.079000	1.189660
8.080000	1.264708
8.081000	1.417703
8.082000	1.626098
8.083000	1.735288
8.084000	1.664105
8.085000	1.491784
8.086000	1.334280
8.087000	1.298206
8.088000	1.429620
8.089000	1.708554
8.090000	1.938852
8.091000	2.104086
8.092000	2.238722
8.093000	2.259980
8.094000	2.166895
8.095000	2.114071
8.096000	2.103764
8.097000	2.040311
8.098000	1.855751
8.099000	1.722082
8.100000	1.638659
8.101000	1.478256
8.102000	1.410616
8.103000	1.400954
8.104000	1.465050
8.105000	1.539132
8.106000	1.532690
8.107000	1.528181
8.108000	1.502413
8.109000	1.478901
8.110000	1.512720
8.111000	1.566188
8.112000	1.586802
8.113000	1.523027
8.114000	1.456998
8.115000	1.397411
8.116000	1.390002
8.117000	1.349419
8.118000	1.367778
8.119000	1.423500
8.120000	1.566832
8.121000	1.622555
8.122000	1.536555
8.123000	1.359403
8.124000	1.195780
8.125000	1.152297
8.126000	1.142956
8.127000	1.141023
8.128000	1.240873
8.129000	1.339756
8.130000	1.442504
8.131000	1.612570
8.132000	1.755580
8.133000	1.833527
8.134000	1.863804
8.135000	1.837070
8.136000	1.761700
8.137000	1.682464
8.138000	1.716928
8.139000	1.803572
8.140000	1.839646
8.141000	1.807759
8.142000	1.808403
8.143000	2.017765
8.144000	2.240655
8.145000	2.340826
8.146000	2.333096
8.147000	2.232602
8.148000	2.104086
8.149000	1.981690
8.150000	1.779415
8.151000	1.718861
8.152000	1.656697
8.153000	1.424789
8.154000	1.196424
8.155000	1.094642
8.156000	1.092709
8.157000	1.097219
8.158000	1.103338
8.159000	1.098185
8.160000	1.045039
8.161000	0.983519
8.162000	0.977077
8.163000	1.077893
8.164000	1.326228
8.165000	1.561035
8.166000	1.744629
8.167000	1.863159
8.168000	1.913084
8.169000	1.843834
8.170000	1.670869
8.171000	1.529147
8.172000	1.443470
8.173000	1.397733
8.174000	1.471170
8.175000	1.621266
8.176000	1.671835
8.177000	1.641880
8.178000	1.609027
8.179000	1.634794
8.180000	1.665715
8.181000	1.672801
8.182000	1.796808
8.183000	1.862837
8.184000	1.843189
8.185000	1.767819
8.186000	1.595821
8.187000	1.442826
8.188000	1.359726
8.189000	1.313022
8.190000	1.314310
8.191000	1.260198
8.192000	1.250213
8.193000	1.310767
8.194000	1.439283
8.195000	1.498226
8.196000	1.543964
8.197000	1.612248
8.198000	1.695026
8.199000	1.735288
8.200000	1.681820
8.201000	1.589379
8.202000	1.481799
8.203000	1.443148
8.204000	1.441860
8.205000	1.515941
8.206000	1.619012
8.207000	1.683431
8.208000	1.751393
8.209000	1.777804
8.210000	1.849953
8.211000	1.875721
8.212000	1.838036
8.213000	1.762988
8.214000	1.679243
8.215000	1.652187
8.216000	1.532046
8.217000	1.442504
8.218000	1.434129
8.219000	1.403530
8.220000	1.394512
8.221000	1.405463
8.222000	1.508211
8.223000	1.573274
8.224000	1.542675
8.225000	1.498548
8.226000	1.485665
8.227000	1.499515
8.228000	1.591312
8.229000	1.684719
8.230000	1.707266
8.231000	1.697603
8.232000	1.792299
8.233000	1.887316
8.234000	1.998439
8.235000	1.975570
8.236000	1.881197
8.237000	1.997473
8.238000	2.030649
8.239000	1.898590
8.240000	1.723048
8.241000	1.495327
8.242000	1.258910
8.243000	1.099795
8.244000	1.095286
8.245000	1.103338
8.246000	1.136836
8.247000	1.168079
8.248000	1.209630
8.249000	1.264064
8.250000	1.302071
8.251000	1.319142
8.252000	1.297561
8.253000	1.308190
8.254000	1.355860
8.255000	1.398055
8.256000	1.435740
8.257000	1.502736
8.258000	1.643491
8.259000	1.835459
8.260000	1.870890
8.261000	1.799385
8.262000	1.739475
8.263000	1.689228
8.264000	1.581004
8.265000	1.459575
8.266000	1.381306
8.267000	1.422212
8.268000	1.579394
8.269000	1.725947
8.270000	1.843834
8.271000	1.834815
8.272000	1.779093
8.273000	1.753969
8.274000	1.781025
8.275000	1.783602
8.276000	1.718539
8.277000	1.681820
8.278000	1.671835
8.279000	1.571020
8.280000	1.446047
8.281000	1.388070
8.282000	1.354250
8.283000	1.314310
8.284000	1.264386
8.285000	1.219615
8.286000	1.219615
8.287000	1.351029
8.288000	1.563611
8.289000	1.742374
8.290000	1.864770
8.291000	1.895369
8.292000	1.892148
8.293000	1.800351
8.294000	1.691805
8.295000	1.677633
8.296000	1.854141
8.297000	2.056738
8.298000	2.179134
8.299000	2.194917
8.300000	2.109240
8.301000	1.980724
8.302000	1.860261
8.303000	1.696636
8.304000	1.514975
8.305000	1.338145
8.306000	1.260520
8.307000	1.246348
8.308000	1.268251
8.309000	1.226378
8.310000	1.211562
8.311000	1.175810
8.312000	1.151653
8.313000	1.138125
8.314000	1.192236
8.315000	1.236041
8.316000	1.291442
8.317000	1.310123
8.318000	1.296273
8.319000	1.313988
8.320000	1.373254
8.321000	1.452489
8.322000	1.578106
8.323000	1.669580
8.324000	1.726913
8.325000	1.859616
8.326000	1.991353
8.327000	1.979758
8.328000	1.925002
8.329000	1.896657
8.330000	1.943683
8.331000	1.923069
8.332000	1.883129
8.333000	1.758156
8.334000	1.629319
8.335000	1.637371
8.336000	1.599042
8.337000	1.532368
8.338000	1.367778
8.339000	1.275659
8.340000	1.239584
8.341000	1.206731
8.342000	1.176132
8.343000	1.216394
8.344000	1.256011
8.345000	1.287254
8.346000	1.335891
8.347000	1.400954
8.348000	1.476002
8.349000	1.540743
8.350000	1.599364
8.351000	1.602907
8.352000	1.570375
8.353000	1.544930
8.354000	1.508533
8.355000	1.487919
8.356000	1.501447
8.357000	1.525604
8.358000	1.557169
8.359000	1.607738
8.360000	1.629319
8.361000	1.702112
8.362000	1.889249
8.363000	2.117614
8.364000	2.163996
8.365000	2.131464
8.366000	2.143704
8.367000	2.032581
8.368000	1.904387
8.369000	1.824508
8.370000	1.741408
8.371000	1.637049
8.372000	1.541709
8.373000	1.400954
8.374000	1.237330
8.375000	1.195135
8.376000	1.244094
8.377000	1.315921
8.378000	1.442182
8.379000	1.504346
8.380000	1.494361
8.381000	1.523672
8.382000	1.543964
8.383000	1.587124
8.384000	1.708876
8.385000	1.864126
8.386000	1.970417
8.387000	2.050619
8.388000	1.972349
8.389000	1.921136
8.390000	1.741408
8.391000	1.557169
8.392000	1.431231
8.393000	1.319142
8.394000	1.279846
8.395000	1.269539
8.396000	1.300782
8.397000	1.275015
8.398000	1.304647
8.399000	1.298206
8.400000	1.271150
8.401000	1.275659
8.402000	1.301104
8.403000	1.334280
8.404000	1.362302
8.405000	1.417703
8.406000	1.597753
8.407000	1.830306
8.408000	1.962365
8.409000	2.016476
8.410000	2.005847
8.411000	1.896013
8.412000	1.714030
8.413000	1.511110
8.414000	1.378407
8.415000	1.280812
8.416000	1.258588
8.417000	1.297883
8.418000	1.388070
8.419000	1.533979
8.420000	1.807437
8.421000	2.184610
8.422000	2.346946
8.423000	2.350811
8.424000	2.267710
8.425000	2.136296
8.426000	1.917915
8.427000	1.642202
8.428000	1.457642
8.429000	1.352317
8.430000	1.247959
8.431000	1.195135
8.432000	1.173555
8.433000	1.202221
8.434000	1.250213
8.435000	1.377119
8.436000	1.484054
8.437000	1.505312
8.438000	1.505312
8.439000	1.503380
8.440000	1.504668
8.441000	1.449590
8.442000	1.339112
8.443000	1.281779
8.444000	1.272760
8.445000	1.310767
8.446000	1.392257
8.447000	1.450234
8.448000	1.492751
8.449000	1.552338
8.450000	1.571986
8.451000	1.602263
8.452000	1.616757
8.453000	1.615791
8.454000	1.516263
8.455000	1.346842
8.456000	1.224768
8.457000	1.136192
8.458000	1.120732
8.459000	1.218970
8.460000	1.333636
8.461000	1.455066
8.462000	1.574563
8.463000	1.632218
8.464000	1.719827
8.465000	1.792299
8.466000	1.821287
8.467000	1.795197
8.468000	1.762988
8.469000	1.745273
8.470000	1.798418
8.471000	1.952058
8.472000	2.180423
8.473000	2.316025
8.474000	2.300564
8.475000	2.067690
8.476000	1.874755
8.477000	1.835137
8.478000	1.912762
8.479000	2.042566
8.480000	2.165606
8.481000	2.086693
8.482000	1.888605
8.483000	1.690839
8.484000	1.424467
8.485000	1.175165
8.486000	1.107204
8.487000	1.102694
8.488000	1.121376
8.489000	1.121376
8.490000	1.142634
8.491000	1.173877
8.492000	1.188693
8.493000	1.210274
8.494000	1.239262
8.495000	1.245060
8.496000	1.257622
8.497000	1.354572
8.498000	1.555237
8.499000	1.835137
8.500000	2.057060
8.501000	2.187831
8.502000	2.132753
8.503000	1.997795
8.504000	1.779415
8.505000	1.580038
8.506000	1.458931
8.507000	1.406429
8.508000	1.374542
8.509000	1.352962
8.510000	1.342010
8.511000	1.383883
8.512000	1.367778
8.513000	1.303681
8.514000	1.253112
8.515000	1.232820
8.516000	1.292086
8.517000	1.407073
8.518000	1.489852
8.519000	1.495005
8.520000	1.495005
8.521000	1.493395
8.522000	1.509499
8.523000	1.539132
8.524000	1.634794
8.525000	1.775872
8.526000	1.896013
8.527000	1.952380
8.528000	1.985233
8.529000	2.045465
8.530000	2.028716
8.531000	1.976537
8.532000	1.888283
8.533000	1.729490
8.534000	1.680854
8.535000	1.583903
8.536000	1.393868
8.537000	1.362947
8.538000	1.399987
8.539000	1.422534
8.540000	1.416736
8.541000	1.351351
8.542000	1.289187
8.543000	1.281135
8.544000	1.408040
8.545000	1.556847
8.546000	1.789722
8.547000	2.057383
8.548000	2.177524
8.549000	2.108596
8.550000	1.983945
8.551000	1.682786
8.552000	1.373254
8.553000	1.090777
8.554000	0.957752
8.555000	0.986418
8.556000	1.039564
8.557000	1.179675
8.558000	1.333636
8.559000	1.487919
8.560000	1.567154
8.561000	1.615147
8.562000	1.665393
8.563000	1.824186
8.564000	2.051263
8.565000	2.178490
8.566000	2.199748
8.567000	2.192340
8.568000	2.139517
8.569000	2.091847
8.570000	1.915661
8.571000	1.660240
8.572000	1.486953
8.573000	1.350385
8.574000	1.238940
8.575000	1.141023
8.576000	1.117511
8.577000	1.160671
8.578000	1.280168
8.579000	1.459575
8.580000	1.454099
8.581000	1.395156
8.582000	1.505634
8.583000	1.641880
8.584000	1.743984
8.585000	1.886994
8.586000	2.087337
8.587000	2.230992
8.588000	2.378511
8.589000	2.399769
8.590000	2.287358
8.591000	1.967840
8.592000	1.580038
8.593000	1.307868
8.594000	1.198678
8.595000	1.163570
8.596000	1.218970
8.597000	1.315921
8.598000	1.320108
8.599000	1.258910
8.600000	1.206087
8.601000	1.164858
8.602000	1.122986
8.603000	1.120732
8.604000	1.118155
8.605000	1.155840
8.606000	1.220581
8.607000	1.313988
8.608000	1.377441
8.609000	1.412871
8.610000	1.492106
8.611000	1.593566
8.612000	1.721116
8.613000	1.804216
8.614000	1.853819
8.615000	1.878942
8.616000	1.762022
8.617000	1.604839
8.618000	1.512398
8.619000	1.488563
8.620000	1.533012
8.621000	1.689228
8.622000	1.913084
8.623000	2.129532
8.624000	2.183000
8.625000	2.093457
8.626000	1.898590
8.627000	1.728846
8.628000	1.520129
8.629000	1.385171
8.630000	1.319142
8.631000	1.314632
8.632000	1.362624
8.633000	1.396766
8.634000	1.410616
8.635000	1.354572
8.636000	1.263741
8.637000	1.226056
8.638000	1.250858
8.639000	1.305614
8.640000	1.403530
8.641000	1.665715
8.642000	1.894725
8.643000	2.055128
8.644000	2.114715
8.645000	2.066723
8.646000	2.085083
8.647000	2.297987
8.648000	2.346302
8.649000	2.174303
8.650000	1.862515
8.651000	1.489208
8.652000	1.224124
8.653000	1.067908
8.654000	1.031834
8.655000	1.071451
8.656000	1.183218
8.657000	1.368744
8.658000	1.486631
8.659000	1.528503
8.660000	1.580360
8.661000	1.603551
8.662000	1.637049
8.663000	1.603551
8.664000	1.439283
8.665000	1.374220
8.666000	1.333958
8.667000	1.326228
8.668000	1.372609
8.669000	1.548795
8.670000	1.680854
8.671000	1.718861
8.672000	1.596143
8.673000	1.426077
8.674000	1.321074
8.675000	1.236686
8.676000	1.243772
8.677000	1.342332
8.678000	1.446047
8.679000	1.574240
8.680000	1.652832
8.681000	1.666682
8.682000	1.638659
8.683000	1.580360
8.684000	1.499515
8.685000	1.423178
8.686000	1.376474
8.687000	1.389358
8.688000	1.523027
8.689000	1.657985
8.690000	1.704689
8.691000	1.792943
8.692000	1.879908
8.693000	1.908575
8.694000	1.882807
8.695000	1.930155
8.696000	1.979113
8.697000	1.979113
8.698000	1.941106
8.699000	1.848343
8.700000	1.646068
8.701000	1.525282
8.702000	1.439927
8.703000	1.350707
8.704000	1.314954
8.705000	1.374220
8.706000	1.510466
8.707000	1.666682
8.708000	1.837392
8.709000	2.032581
8.710000	2.146281
8.711000	2.196205
8.712000	2.130176
8.713000	1.911151
8.714000	1.692449
8.715000	1.517552
8.716000	1.518196
8.717000	1.498870
8.718000	1.544286
8.719000	1.697925
8.720000	1.836748
8.721000	1.994574
8.722000	1.985877
8.723000	1.753647
8.724000	1.395800
8.725000	1.113001
8.726000	0.956786
8.727000	0.905573
8.728000	1.026036
8.729000	1.367456
8.730000	1.715318
8.731000	1.976215
8.732000	2.010679
8.733000	1.852530
8.734000	1.626098
8.735000	1.409006
8.736000	1.176776
8.737000	1.072095
8.738000	1.091743
8.739000	1.180319
8.740000	1.297883
8.741000	1.439927
8.742000	1.608060
8.743000	1.751715
8.744000	1.797452
8.745000	1.813557
8.746000	1.880552
8.747000	1.884096
8.748000	1.904710
8.749000	1.905998
8.750000	1.862837
8.751000	1.690195
8.752000	1.464728
8.753000	1.307546
8.754000	1.256333
8.755000	1.192881
8.756000	1.137480
8.757000	1.139413
8.758000	1.206087
8.759000	1.323651
8.760000	1.391613
8.761000	1.455388
8.762000	1.491140
8.763000	1.531080
8.764000	1.589057
8.765000	1.614824
8.766000	1.638659
8.767000	1.650577
8.768000	1.592278
8.769000	1.531080
8.770000	1.495005
8.771000	1.613214
8.772000	1.761055
8.773000	1.894403
8.774000	1.950447
8.775000	1.833205
8.776000	1.671191
8.777000	1.642202
8.778000	1.574563
8.779000	1.589379
8.780000	1.707910
8.781000	1.800995
8.782000	1.740119
8.783000	1.663783
8.784000	1.595821
8.785000	1.544608
8.786000	1.498226
8.787000	1.427365
8.788000	1.355216
8.789000	1.341366
8.790000	1.345231
8.791000	1.395478
8.792000	1.604839
8.793000	1.723370
8.794000	1.614824
8.795000	1.418347
8.796000	1.255045
8.797000	1.216071
8.798000	1.290153
8.799000	1.446047
8.800000	1.646712
8.801000	1.908897
8.802000	2.039667
8.803000	2.086693
8.804000	2.090558
8.805000	2.051907
8.806000	2.010679
8.807000	1.858650
8.808000	1.635761
8.809000	1.447657
8.810000	1.369711
8.811000	1.316243
8.812000	1.298206
8.813000	1.314310
8.814000	1.358115
8.815000	1.470848
8.816000	1.727558
8.817000	1.893758
8.818000	1.917593
8.819000	1.870890
8.820000	1.855751
8.821000	1.968484
8.822000	1.967518
8.823000	1.856073
8.824000	1.648966
8.825000	1.449912
8.826000	1.366490
8.827000	1.438961
8.828000	1.417380
8.829000	1.398699
8.830000	1.365523
8.831000	1.312378
8.832000	1.294663
8.833000	1.293696
8.834000	1.335568
8.835000	1.408362
8.836000	1.518840
8.837000	1.547829
8.838000	1.531724
8.839000	1.459253
8.840000	1.427043
8.841000	1.478256
8.842000	1.571664
8.843000	1.649611
8.844000	1.662816
8.845000	1.550083
8.846000	1.404175
8.847000	1.305614
8.848000	1.246993
8.849000	1.234109
8.850000	1.311089
8.851000	1.479867
8.852000	1.589701
8.853000	1.635438
8.854000	1.708554
8.855000	1.784890
8.856000	1.847055
8.857000	1.829984
8.858000	1.865414
8.859000	1.917271
8.860000	1.893436
8.861000	1.837070
8.862000	1.813235
8.863000	1.744951
8.864000	1.663783
8.865000	1.589057
8.866000	1.706943
8.867000	1.796486
8.868000	1.790366
8.869000	1.865736
8.870000	1.967518
8.871000	1.920492
8.872000	1.798096
8.873000	1.634472
8.874000	1.516263
8.875000	1.447979
8.876000	1.450878
8.877000	1.494683
8.878000	1.484054
8.879000	1.469560
8.880000	1.493717
8.881000	1.523994
8.882000	1.562645
8.883000	1.582937
8.884000	1.601941
8.885000	1.570697
8.886000	1.487275
8.887000	1.308513
8.888000	1.150042
8.889000	1.089810
8.890000	1.137480
8.891000	1.256977
8.892000	1.365523
8.893000	1.488885
8.894000	1.612892
8.895000	1.720471
8.896000	1.922103
8.897000	2.160131
8.898000	2.241299
8.899000	2.244198
8.900000	2.209733
8.901000	2.119547
8.902000	1.942717
8.903000	1.799063
8.904000	1.651865
8.905000	1.539454
8.906000	1.471814
8.907000	1.423822
8.908000	1.471814
8.909000	1.535267
8.910000	1.495649
8.911000	1.474391
8.912000	1.460541
8.913000	1.390969
8.914000	1.289509
8.915000	1.232820
8.916000	1.239262
8.917000	1.364879
8.918000	1.547829
8.919000	1.693738
8.920000	1.806471
8.921000	1.791654
8.922000	1.805182
8.923000	1.751070
8.924000	1.643169
8.925000	1.528825
8.926000	1.433807
8.927000	1.371643
8.928000	1.308513
8.929000	1.208341
8.930000	1.102372
8.931000	1.073062
8.932000	1.119443
8.933000	1.207053
8.934000	1.354572
8.935000	1.448302
8.936000	1.478578
8.937000	1.481799
8.938000	1.425755
8.939000	1.384849
8.940000	1.421568
8.941000	1.474713
8.942000	1.529469
8.943000	1.603229
8.944000	1.646068
8.945000	1.657663
8.946000	1.680854
8.947000	1.692771
8.948000	1.668614
8.949000	1.622555
8.950000	1.576173
8.951000	1.613536
8.952000	1.667326
8.953000	1.702434
8.954000	1.764598
8.955000	1.778126
8.956000	1.808081
8.957000	1.850920
8.958000	1.864448
8.959000	1.863159
8.960000	1.786501
8.961000	1.621588
8.962000	1.415126
8.963000	1.313988
8.964000	1.314310
8.965000	1.394512
8.966000	1.473425
8.967000	1.459253
8.968000	1.461185
8.969000	1.398055
8.970000	1.361658
8.971000	1.424467
8.972000	1.520773
8.973000	1.675700
8.974000	1.817744
8.975000	1.945616
8.976000	2.024851
8.977000	2.042566
8.978000	1.971705
8.979000	1.833205
8.980000	1.610637
8.981000	1.477934
8.982000	1.426077
8.983000	1.383561
8.984000	1.333958
8.985000	1.334280
8.986000	1.368100
8.987000	1.363591
8.988000	1.413837
8.989000	1.445725
8.990000	1.411583
8.991000	1.410616
8.992000	1.485665
8.993000	1.587124
8.994000	1.637371
8.995000	1.635116
8.996000	1.650899
8.997000	1.608705
8.998000	1.541387
8.999000	1.483732
9.000000	1.456998
9.001000	1.448624
9.002000	1.455710
9.003000	1.457964
9.004000	1.491140
9.005000	1.503380
9.006000	1.502736
9.007000	1.487275
9.008000	1.481477
9.009000	1.608705
9.010000	1.754936
9.011000	1.940784
9.012000	2.008102
9.013000	1.938530
9.014000	1.893758
9.015000	1.829017
9.016000	1.790688
9.017000	1.829017
9.018000	1.869601
9.019000	2.006169
9.020000	2.138873
9.021000	2.062214
9.022000	1.846410
9.023000	1.585836
9.024000	1.427688
9.025000	1.322041
9.026000	1.220903
9.027000	1.169690
9.028000	1.152619
9.029000	1.145533
9.030000	1.172589
9.031000	1.215749
9.032000	1.239584
9.033000	1.259876
9.034000	1.372931
9.035000	1.544608
9.036000	1.690195
9.037000	1.791010
9.038000	1.791976
9.039000	1.743984
9.040000	1.681820
9.041000	1.520451
9.042000	1.401276
9.043000	1.339434
9.044000	1.268251
9.045000	1.275659
9.046000	1.402886
9.047000	1.556525
9.048000	1.676344
9.049000	1.771362
9.050000	1.737865
9.051000	1.514009
9.052000	1.331381
9.053000	1.283067
9.054000	1.298528
9.055000	1.343621
9.056000	1.419957
9.057000	1.537844
9.058000	1.635761
9.059000	1.736576
9.060000	1.813557
9.061000	1.851242
9.062000	1.865736
9.063000	1.913406
9.064000	1.936919
9.065000	1.946582
9.066000	1.939174
9.067000	2.086049
9.068000	2.248385
9.069000	2.334062
9.070000	2.228737
9.071000	1.910507
9.072000	1.556203
9.073000	1.298850
9.074000	1.213173
9.075000	1.150042
9.076000	1.102694
9.077000	1.072739
9.078000	1.113001
9.079000	1.118155
9.080000	1.160027
9.081000	1.237652
9.082000	1.276625
9.083000	1.297239
9.084000	1.355860
9.085000	1.418991
9.086000	1.459253
9.087000	1.511432
9.088000	1.564256
9.089000	1.602907
9.090000	1.569087
9.091000	1.478578
9.092000	1.420924
9.093000	1.407073
9.094000	1.318175
9.095000	1.290153
9.096000	1.406107
9.097000	1.542353
9.098000	1.609349
9.099000	1.658951
9.100000	1.679243
9.101000	1.662816
9.102000	1.579394
9.103000	1.506923
9.104000	1.539132
9.105000	1.690839
9.106000	1.952058
9.107000	2.113749
9.108000	2.112139
9.109000	2.038379
9.110000	1.896013
9.111000	1.697925
9.112000	1.631573
9.113000	1.674412
9.114000	1.778771
9.115000	1.845444
9.116000	1.818066
9.117000	1.814523
9.118000	1.747527
9.119000	1.580360
9.120000	1.406429
9.121000	1.328160
9.122000	1.302071
9.123000	1.311089
9.124000	1.333314
9.125000	1.405463
9.126000	1.594210
9.127000	1.736576
9.128000	1.939496
9.129000	2.066401
9.130000	2.129532
9.131000	2.103764
9.132000	1.984911
9.133000	1.810980
9.134000	1.595821
9.135000	1.391935
9.136000	1.248281
9.137000	1.198356
9.138000	1.181929
9.139000	1.309157
9.140000	1.525604
9.141000	1.572952
9.142000	1.510144
9.143000	1.407718
9.144000	1.380018
9.145000	1.401598
9.146000	1.447013
9.147000	1.497260
9.148000	1.536555
9.149000	1.592922
9.150000	1.684719
9.151000	1.691805
9.152000	1.655408
9.153000	1.581971
9.154000	1.501769
9.155000	1.438317
9.156000	1.406107
9.157000	1.326550
9.158000	1.289509
9.159000	1.300138
9.160000	1.464084
9.161000	1.642202
9.162000	1.802606
9.163000	1.881841
9.164000	1.767497
9.165000	1.557492
9.166000	1.359726
9.167000	1.232176
9.168000	1.179031
9.169000	1.170978
9.170000	1.217038
9.171000	1.223158
9.172000	1.206087
9.173000	1.208663
9.174000	1.256977
9.175000	1.341044
9.176000	1.409650
9.177000	1.551050
9.178000	1.737865
9.179000	1.813557
9.180000	1.846410
9.181000	1.856395
9.182000	1.825796
9.183000	1.750426
9.184000	1.745595
9.185000	1.832560
9.186000	2.027750
9.187000	2.184610
9.188000	2.144348
9.189000	1.901167
9.190000	1.675056
9.191000	1.591634
9.192000	1.594855
9.193000	1.674090
9.194000	1.705977
9.195000	1.613214
9.196000	1.649611
9.197000	1.707588
9.198000	1.658307
9.199000	1.626420
9.200000	1.561357
9.201000	1.520451
9.202000	1.569087
9.203000	1.579394
9.204000	1.502091
9.205000	1.372287
9.206000	1.323973
9.207000	1.345876
9.208000	1.379051
9.209000	1.508533
9.210000	1.573918
9.211000	1.578428
9.212000	1.502091
9.213000	1.399343
9.214000	1.347486
9.215000	1.313988
9.216000	1.318820
9.217000	1.339112
9.218000	1.412227
9.219000	1.441860
9.220000	1.430908
9.221000	1.415126
9.222000	1.440249
9.223000	1.569409
9.224000	1.654764
9.225000	1.667004
9.226000	1.674734
9.227000	1.637049
9.228000	1.574563
9.229000	1.546218
9.230000	1.649611
9.231000	1.817744
9.232000	1.999728
9.233000	2.022918
9.234000	1.873788
9.235000	1.638659
9.236000	1.423822
9.237000	1.282745
9.238000	1.159061
9.239000	1.116866
9.240000	1.103338
9.241000	1.162282
9.242000	1.272438
9.243000	1.403530
9.244000	1.459897
9.245000	1.479545
9.246000	1.544286
9.247000	1.718861
9.248000	2.026139
9.249000	2.335995
9.250000	2.404601
9.251000	2.385275
9.252000	2.186543
9.253000	1.847699
9.254000	1.388070
9.255000	1.121376
9.256000	1.005100
9.257000	0.972568
9.258000	1.010575
9.259000	1.119121
9.260000	1.238618
9.261000	1.347164
9.262000	1.432519
9.263000	1.466983
9.264000	1.498870
9.265000	1.501447
9.266000	1.485987
9.267000	1.547185
9.268000	1.587124
9.269000	1.578428
9.270000	1.559746
9.271000	1.501769
9.272000	1.418025
9.273000	1.299816
9.274000	1.263741
9.275000	1.216394
9.276000	1.200933
9.277000	1.362947
9.278000	1.457320
9.279000	1.568121
9.280000	1.712741
9.281000	1.792299
9.282000	1.928867
9.283000	2.099899
9.284000	2.269321
9.285000	2.385919
9.286000	2.458391
9.287000	2.467409
9.288000	2.434556
9.289000	2.369493
9.290000	2.072199
9.291000	1.800351
9.292000	1.627064
9.293000	1.501125
9.294000	1.361980
9.295000	1.260520
9.296000	1.186761
9.297000	1.140701
9.298000	1.160349
9.299000	1.178386
9.300000	1.227023
9.301000	1.275337
9.302000	1.483732
9.303000	1.678599
9.304000	1.759767
9.305000	1.748172
9.306000	1.586480
9.307000	1.480833
9.308000	1.434451
9.309000	1.331059
9.310000	1.309801
9.311000	1.343299
9.312000	1.307546
9.313000	1.224768
9.314000	1.143922
9.315000	1.148754
9.316000	1.181285
9.317000	1.265996
9.318000	1.419313
9.319000	1.521739
9.320000	1.536878
9.321000	1.523350
9.322000	1.549117
9.323000	1.604517
9.324000	1.681498
9.325000	1.742374
9.326000	1.785212
9.327000	1.824830
9.328000	1.813879
9.329000	1.758801
9.330000	1.711453
9.331000	1.753969
9.332000	1.781669
9.333000	1.709842
9.334000	1.610315
9.335000	1.566188
9.336000	1.503058
9.337000	1.450234
9.338000	1.365201
9.339000	1.313988
9.340000	1.250213
9.341000	1.234431
9.342000	1.303681
9.343000	1.440249
9.344000	1.604195
9.345000	1.791010
9.346000	1.980402
9.347000	2.201037
9.348000	2.283493
9.349000	2.304107
9.350000	2.270287
9.351000	2.123090
9.352000	2.046753
9.353000	1.952380
9.354000	1.819999
9.355000	1.803572
9.356000	1.782958
9.357000	1.676022
9.358000	1.494039
9.359000	1.423500
9.360000	1.405463
9.361000	1.389358
9.362000	1.409006
9.363000	1.415126
9.364000	1.352639
9.365000	1.285966
9.366000	1.240229
9.367000	1.260198
9.368000	1.211884
9.369000	1.187727
9.370000	1.188693
9.371000	1.191914
9.372000	1.222191
9.373000	1.390969
9.374000	1.655730
9.375000	1.864126
9.376000	1.893436
9.377000	1.755580
9.378000	1.554915
9.379000	1.339756
9.380000	1.205442
9.381000	1.157772
9.382000	1.214461
9.383000	1.355216
9.384000	1.497582
9.385000	1.658307
9.386000	1.733677
9.387000	1.677633
9.388000	1.632218
9.389000	1.599042
9.390000	1.645745
9.391000	1.731745
9.392000	1.735932
9.393000	1.764276
9.394000	1.682464
9.395000	1.517874
9.396000	1.396444
9.397000	1.411583
9.398000	1.401920
9.399000	1.459575
9.400000	1.655730
9.401000	1.945294
9.402000	2.262879
9.403000	2.383987
9.404000	2.381088
9.405000	2.191374
9.406000	1.812590
9.407000	1.632218
9.408000	1.564578
9.409000	1.545574
9.410000	1.630607
9.411000	1.651865
9.412000	1.552338
9.413000	1.393545
9.414000	1.206731
9.415000	1.100118
9.416000	1.146177
9.417000	1.256655
9.418000	1.487919
9.419000	1.757190
9.420000	1.960432
9.421000	2.052229
9.422000	2.052229
9.423000	1.977503
9.424000	1.740441
9.425000	1.466339
9.426000	1.285322
9.427000	1.174843
9.428000	1.155196
9.429000	1.229922
9.430000	1.322363
9.431000	1.389680
9.432000	1.444436
9.433000	1.438639
9.434000	1.425755
9.435000	1.391613
9.436000	1.331381
9.437000	1.291119
9.438000	1.242805
9.439000	1.239584
9.440000	1.292086
9.441000	1.351995
9.442000	1.429620
9.443000	1.498226
9.444000	1.562001
9.445000	1.611281
9.446000	1.613214
9.447000	1.642847
9.448000	1.687296
9.449000	1.799707
9.450000	1.985877
9.451000	2.116326
9.452000	2.152400
9.453000	2.185898
9.454000	2.098289
9.455000	1.876043
9.456000	1.645101
9.457000	1.425111
9.458000	1.235397
9.459000	1.154229
9.460000	1.191592
9.461000	1.249891
9.462000	1.282101
9.463000	1.342655
9.464000	1.379051
9.465000	1.493073
9.466000	1.788755
9.467000	2.048686
9.468000	2.204902
9.469000	2.066723
9.470000	1.765887
9.471000	1.481477
9.472000	1.315921
9.473000	1.281779
9.474000	1.332992
9.475000	1.382594
9.476000	1.436384
9.477000	1.482766
9.478000	1.530436
9.479000	1.567799
9.480000	1.562967
9.481000	1.581971
9.482000	1.619978
9.483000	1.824508
9.484000	1.992964
9.485000	2.015832
9.486000	1.893114
9.487000	1.713385
9.488000	1.551694
9.489000	1.458609
9.490000	1.336213
9.491000	1.237652
9.492000	1.200611
9.493000	1.239906
9.494000	1.337501
9.495000	1.387748
9.496000	1.483088
9.497000	1.594532
9.498000	1.634794
9.499000	1.643491
9.500000	1.662494
9.501000	1.649289
9.502000	1.596787
9.503000	1.522705
9.504000	1.437995
9.505000	1.420279
9.506000	1.374864
9.507000	1.362624
9.508000	1.389680
9.509000	1.445725
9.510000	1.444436
9.511000	1.409650
9.512000	1.450878
9.513000	1.565222
9.514000	1.713063
9.515000	1.869923
9.516000	2.031293
9.517000	2.089270
9.518000	2.025495
9.519000	1.835137
9.520000	1.723692
9.521000	1.602263
9.522000	1.508855
9.523000	1.520451
9.524000	1.504990
9.525000	1.500481
9.526000	1.399987
9.527000	1.280812
9.528000	1.180641
9.529000	1.150364
9.530000	1.170012
9.531000	1.212528
9.532000	1.258266
9.533000	1.286288
9.534000	1.323329
9.535000	1.352317
9.536000	1.367456
9.537000	1.410939
9.538000	1.451845
9.539000	1.502736
9.540000	1.609993
9.541000	1.723048
9.542000	1.854785
9.543000	1.961076
9.544000	1.927256
9.545000	1.733033
9.546000	1.623843
9.547000	1.799385
9.548000	2.041600
9.549000	2.202003
9.550000	2.186220
9.551000	2.099255
9.552000	1.822575
9.553000	1.494039
9.554000	1.234753
9.555000	1.137480
9.556000	1.175810
9.557000	1.243449
9.558000	1.290797
9.559000	1.469560
9.560000	1.822898
9.561000	2.173981
9.562000	2.295733
9.563000	2.231314
9.564000	2.037091
9.565000	1.776838
9.566000	1.526571
9.567000	1.350063
9.568000	1.343621
9.569000	1.382916
9.570000	1.521417
9.571000	1.628030
9.572000	1.684397
9.573000	1.714674
9.574000	1.732067
9.575000	1.759445
9.576000	1.753003
9.577000	1.757512
9.578000	1.774905
9.579000	1.690839
9.580000	1.597753
9.581000	1.470526
9.582000	1.317853
9.583000	1.204476
9.584000	1.100440
9.585000	1.097541
9.586000	1.108814
9.587000	1.126851
9.588000	1.177742
9.589000	1.196746
9.590000	1.215749
9.591000	1.221869
9.592000	1.209307
9.593000	1.182574
9.594000	1.163248
9.595000	1.159061
9.596000	1.193847
9.597000	1.305292
9.598000	1.481799
9.599000	1.683431
9.600000	1.894080
9.601000	2.088948
9.602000	2.129210
9.603000	2.000050
9.604000	1.830628
9.605000	1.702112
9.606000	1.528503
9.607000	1.382916
9.608000	1.276625
9.609000	1.249891
9.610000	1.286610
9.611000	1.353284
9.612000	1.484698
9.613000	1.585514
9.614000	1.630285
9.615000	1.669258
9.616000	1.731101
9.617000	1.804538
9.618000	1.836426
9.619000	1.786501
9.620000	1.784890
9.621000	1.810336
9.622000	1.745595
9.623000	1.702756
9.624000	1.719183
9.625000	1.714030
9.626000	1.658951
9.627000	1.583903
9.628000	1.575529
9.629000	1.675700
9.630000	1.778771
9.631000	2.042244
9.632000	2.341470
9.633000	2.442286
9.634000	2.492533
9.635000	2.497686
9.636000	2.472241
9.637000	2.280272
9.638000	1.774905
9.639000	1.310767
9.640000	1.033122
9.641000	0.929730
9.642000	0.911692
9.643000	0.938748
9.644000	0.939715
9.645000	0.904606
9.646000	0.878517
9.647000	0.888502
9.648000	0.954209
9.649000	1.052448
9.650000	1.159705
9.651000	1.249569
9.652000	1.325261
9.653000	1.395478
9.654000	1.407396
9.655000	1.398699
9.656000	1.457964
9.657000	1.541709
9.658000	1.640270
9.659000	1.685685
9.660000	1.751070
9.661000	1.740763
9.662000	1.743662
9.663000	1.685685
9.664000	1.641236
9.665000	1.681176
9.666000	1.680854
9.667000	1.680854
9.668000	1.714674
9.669000	1.687296
9.670000	1.625454
9.671000	1.529469
9.672000	1.491784
9.673000	1.574563
9.674000	1.700824
9.675000	1.789078
9.676000	1.913406
9.677000	1.995218
9.678000	1.982012
9.679000	1.861227
9.680000	1.665393
9.681000	1.470526
9.682000	1.410939
9.683000	1.433163
9.684000	1.422212
9.685000	1.483732
9.686000	1.627386
9.687000	1.762022
9.688000	1.826763
9.689000	1.810014
9.690000	1.706621
9.691000	1.564900
9.692000	1.447657
9.693000	1.395478
9.694000	1.364879
9.695000	1.299172
9.696000	1.275981
9.697000	1.297239
9.698000	1.323651
9.699000	1.370033
9.700000	1.465373
9.701000	1.605162
9.702000	1.738831
9.703000	1.884418
9.704000	2.004237
9.705000	1.918882
9.706000	1.778448
9.707000	1.675700
9.708000	1.570697
9.709000	1.473103
9.710000	1.442182
9.711000	1.489530
9.712000	1.609671
9.713000	1.686651
9.714000	1.597431
9.715000	1.503380
9.716000	1.448624
9.717000	1.439605
9.718000	1.447657
9.719000	1.467949
9.720000	1.460219
9.721000	1.345876
9.722000	1.302715
9.723000	1.338145
9.724000	1.397089
9.725000	1.423500
9.726000	1.425111
9.727000	1.392257
9.728000	1.342010
9.729000	1.309157
9.730000	1.406429
9.731000	1.586158
9.732000	1.688262
9.733000	1.670547
9.734000	1.595177
9.735000	1.639626
9.736000	2.097644
9.737000	2.419739
9.738000	2.462900
9.739000	2.400092
9.740000	2.093457
9.741000	1.670225
9.742000	1.365201
9.743000	1.263741
9.744000	1.395478
9.745000	1.628030
9.746000	1.724659
9.747000	1.693093
9.748000	1.588413
9.749000	1.453777
9.750000	1.311734
9.751000	1.188371
9.752000	1.095608
9.753000	1.094964
9.754000	1.154874
9.755000	1.217038
9.756000	1.290475
9.757000	1.324295
9.758000	1.350707
9.759000	1.380662
9.760000	1.415770
9.761000	1.428654
9.762000	1.475680
9.763000	1.576495
9.764000	1.577461
9.765000	1.406429
9.766000	1.314310
9.767000	1.297561
9.768000	1.363269
9.769000	1.485987
9.770000	1.753647
9.771000	2.055772
9.772000	2.110528
9.773000	2.056094
9.774000	1.933376
9.775000	1.800351
9.776000	1.664105
9.777000	1.491462
9.778000	1.408684
9.779000	1.409972
9.780000	1.425755
9.781000	1.411583
9.782000	1.428654
9.783000	1.473425
9.784000	1.519484
9.785000	1.509822
9.786000	1.489852
9.787000	1.467949
9.788000	1.595177
9.789000	1.758479
9.790000	1.889571
9.791000	2.015832
9.792000	2.093135
9.793000	2.154333
9.794000	2.127277
9.795000	2.079929
9.796000	1.963975
9.797000	1.644779
9.798000	1.391291
9.799000	1.356505
9.800000	1.434129
9.801000	1.625131
9.802000	1.873788
9.803000	2.032903
9.804000	1.926934
9.805000	1.697603
9.806000	1.492428
9.807000	1.351029
9.808000	1.204476
9.809000	1.117511
9.810000	1.064687
9.811000	1.097541
9.812000	1.143600
9.813000	1.163892
9.814000	1.144889
9.815000	1.169046
9.816000	1.237330
9.817000	1.293052
9.818000	1.448946
9.819000	1.606128
9.820000	1.685363
9.821000	1.708232
9.822000	1.631895
9.823000	1.514653
9.824000	1.464728
9.825000	1.466017
9.826000	1.511110
9.827000	1.600008
9.828000	1.635116
9.829000	1.590345
9.830000	1.544286
9.831000	1.545574
9.832000	1.546218
9.833000	1.762988
9.834000	2.139195
9.835000	2.311515
9.836000	2.227771
9.837000	1.919848
9.838000	1.566832
9.839000	1.333314
9.840000	1.249569
9.841000	1.298528
9.842000	1.402564
9.843000	1.553949
9.844000	1.730134
9.845000	1.899556
9.846000	1.863159
9.847000	1.756546
9.848000	1.614824
9.849000	1.466661
9.850000	1.381950
9.851000	1.262775
9.852000	1.208341
9.853000	1.227023
9.854000	1.320430
9.855000	1.458931
9.856000	1.540743
9.857000	1.493395
9.858000	1.419957
9.859000	1.406751
9.860000	1.446691
9.861000	1.559102
9.862000	1.655408
9.863000	1.766209
9.864000	1.979758
9.865000	2.067045
9.866000	2.089914
9.867000	2.058349
9.868000	1.965585
9.869000	1.762022
9.870000	1.535589
9.871000	1.371321
9.872000	1.256977
9.873000	1.220259
9.874000	1.209952
9.875000	1.229277
9.876000	1.352317
9.877000	1.542997
9.878000	1.718861
9.879000	1.766853
9.880000	1.748172
9.881000	1.822253
9.882000	1.881841
9.883000	1.916305
9.884000	1.976859
9.885000	2.090558
9.886000	2.075098
9.887000	1.986844
9.888000	1.772973
9.889000	1.493073
9.890000	1.325584
9.891000	1.267607
9.892000	1.184828
9.893000	1.136836
9.894000	1.181607
9.895000	1.335246
9.896000	1.447979
9.897000	1.600974
9.898000	1.642847
9.899000	1.559746
9.900000	1.443148
9.901000	1.358115
9.902000	1.272116
9.903000	1.237008
9.904000	1.249569
9.905000	1.284678
9.906000	1.301104
9.907000	1.327194
9.908000	1.418025
9.909000	1.475357
9.910000	1.495005
9.911000	1.535267
9.912000	1.553949
9.913000	1.498548
9.914000	1.397411
9.915000	1.363591
9.916000	1.412549
9.917000	1.472137
9.918000	1.566510
9.919000	1.611926
9.920000	1.665071
9.921000	1.690517
9.922000	1.578428
9.923000	1.508211
9.924000	1.438639
9.925000	1.405141
9.926000	1.478256
9.927000	1.593566
9.928000	1.637371
9.929000	1.674090
9.930000	1.781347
9.931000	1.891504
9.932000	1.981046
9.933000	2.148857
9.934000	2.225516
9.935000	2.157232
9.936000	1.989420
9.937000	1.854785
9.938000	1.734644
9.939000	1.596465
9.940000	1.407396
9.941000	1.246348
9.942000	1.158739
9.943000	1.136514
9.944000	1.231532
9.945000	1.335246
9.946000	1.379695
9.947000	1.395478
9.948000	1.355860
9.949000	1.307546
9.950000	1.352962
9.951000	1.485665
9.952000	1.697925
9.953000	1.898268
9.954000	1.963331
9.955000	1.962687
9.956000	1.859616
9.957000	1.765887
9.958000	1.828051
9.959000	1.810980
9.960000	1.719827
9.961000	1.638981
9.962000	1.569087
9.963000	1.556525
9.964000	1.524638
9.965000	1.431553
9.966000	1.432197
9.967000	1.505956
9.968000	1.509822
9.969000	1.437672
9.970000	1.395478
9.971000	1.387426
9.972000	1.433485
9.973000	1.416092
9.974000	1.404497
9.975000	1.408040
9.976000	1.470848
9.977000	1.617079
9.978000	1.813235
9.979000	1.854463
9.980000	1.793265
9.981000	1.660884
9.982000	1.537200
9.983000	1.443470
9.984000	1.390969
9.985000	1.392257
9.986000	1.449912
9.987000	1.499515
9.988000	1.546540
9.989000	1.656053
9.990000	1.755580
9.991000	1.757512
9.992000	1.670547
9.993000	1.607094
9.994000	1.585192
9.995000	1.570053
9.996000	1.623843
9.997000	1.713063
9.998000	1.698569
9.999000	1.612570

