LabVIEW Measurement	
Writer_Version	2
Reader_Version	2
Separator	Tab
Decimal_Separator	.
Multi_Headings	Yes
X_Columns	One
Time_Pref	Relative
Operator	bjl40
Description	Time Domain Data
Date	1903/12/31
Time	19:00:00
***End_of_Header***	
	
Channels	1	
Samples	10000	
Date	1903/12/31	
Time	19:00:00	
X_Dimension	Time	
X0	0.0000000000000000E+0	
Delta_X	0.001000	
***End_of_Header***		
X_Value	Untitled	Comment
0.000000	1.320430	Tare Values:0.000000, 0.000000, 0.000000, 0.000000\0D\0A
0.001000	1.290475
0.002000	1.259232
0.003000	1.223158
0.004000	1.232176
0.005000	1.435418
0.006000	1.706943
0.007000	1.957855
0.008000	2.086693
0.009000	2.119869
0.010000	2.086371
0.011000	1.956245
0.012000	1.655730
0.013000	1.432197
0.014000	1.303359
0.015000	1.174199
0.016000	1.190304
0.017000	1.246348
0.018000	1.260198
0.019000	1.288865
0.020000	1.342977
0.021000	1.402242
0.022000	1.443470
0.023000	1.508855
0.024000	1.537522
0.025000	1.604517
0.026000	1.734321
0.027000	1.734966
0.028000	1.646390
0.029000	1.686007
0.030000	1.633506
0.031000	1.571986
0.032000	1.598720
0.033000	1.669580
0.034000	1.691805
0.035000	1.640592
0.036000	1.612570
0.037000	1.571020
0.038000	1.478578
0.039000	1.448946
0.040000	1.539776
0.041000	1.650899
0.042000	1.799707
0.043000	1.941428
0.044000	2.068656
0.045000	2.199104
0.046000	2.127599
0.047000	1.896657
0.048000	1.504024
0.049000	1.160671
0.050000	0.993504
0.051000	0.976755
0.052000	1.113645
0.053000	1.407718
0.054000	1.789722
0.055000	1.934342
0.056000	1.876365
0.057000	1.748816
0.058000	1.609993
0.059000	1.356827
0.060000	1.267607
0.061000	1.339434
0.062000	1.440249
0.063000	1.466983
0.064000	1.392901
0.065000	1.258266
0.066000	1.014763
0.067000	0.965160
0.068000	1.007999
0.069000	1.098185
0.070000	1.439283
0.071000	1.836103
0.072000	2.105375
0.073000	2.351777
0.074000	2.412009
0.075000	2.410721
0.076000	2.398159
0.077000	2.251606
0.078000	2.053195
0.079000	1.692127
0.080000	1.375508
0.081000	1.194491
0.082000	1.158417
0.083000	1.144889
0.084000	1.138447
0.085000	1.144244
0.086000	1.217360
0.087000	1.371321
0.088000	1.448946
0.089000	1.550083
0.090000	1.864448
0.091000	2.126633
0.092000	2.172370
0.093000	2.130176
0.094000	1.916305
0.095000	1.730778
0.096000	1.645101
0.097000	1.578750
0.098000	1.670869
0.099000	1.729490
0.100000	1.735288
0.101000	1.777482
0.102000	1.773295
0.103000	1.807759
0.104000	1.821287
0.105000	1.935631
0.106000	2.080573
0.107000	2.314736
0.108000	2.412331
0.109000	2.444863
0.110000	2.408466
0.111000	2.179134
0.112000	1.669903
0.113000	1.312700
0.114000	1.357793
0.115000	1.184828
0.116000	1.060822
0.117000	1.057279
0.118000	1.040852
0.119000	1.088844
0.120000	1.132005
0.121000	1.145533
0.122000	1.235075
0.123000	1.393545
0.124000	1.629963
0.125000	1.740441
0.126000	1.789722
0.127000	1.993930
0.128000	2.150468
0.129000	2.020020
0.130000	1.745273
0.131000	1.557814
0.132000	1.546540
0.133000	1.584225
0.134000	1.657019
0.135000	1.672479
0.136000	1.604839
0.137000	1.580360
0.138000	1.675700
0.139000	1.896335
0.140000	1.885384
0.141000	1.894725
0.142000	1.878942
0.143000	1.773617
0.144000	1.611926
0.145000	1.366812
0.146000	1.332670
0.147000	1.400309
0.148000	1.428010
0.149000	1.487275
0.150000	1.485987
0.151000	1.362947
0.152000	1.159061
0.153000	1.016373
0.154000	0.912337
0.155000	0.957430
0.156000	1.075960
0.157000	1.089488
0.158000	1.056313
0.159000	1.070485
0.160000	1.197712
0.161000	1.461185
0.162000	1.730134
0.163000	1.853174
0.164000	2.100865
0.165000	2.407178
0.166000	2.437455
0.167000	2.384631
0.168000	2.358541
0.169000	2.281561
0.170000	2.069944
0.171000	1.833527
0.172000	1.540098
0.173000	1.256333
0.174000	1.041496
0.175000	0.876906
0.176000	0.836000
0.177000	0.867565
0.178000	1.026680
0.179000	1.194491
0.180000	1.247637
0.181000	1.283067
0.182000	1.326228
0.183000	1.512398
0.184000	1.619978
0.185000	1.784246
0.186000	1.896335
0.187000	1.869923
0.188000	1.796164
0.189000	1.991997
0.190000	2.214565
0.191000	2.496076
0.192000	2.767924
0.193000	2.766958
0.194000	2.765348
0.195000	2.492533
0.196000	1.691483
0.197000	0.993826
0.198000	0.897520
0.199000	0.957430
0.200000	1.019594
0.201000	0.976433
0.202000	0.929730
0.203000	0.854682
0.204000	0.819895
0.205000	0.799281
0.206000	0.839221
0.207000	0.931662
0.208000	1.053414
0.209000	1.152619
0.210000	1.127818
0.211000	1.098507
0.212000	1.273726
0.213000	1.482766
0.214000	1.593566
0.215000	1.547185
0.216000	1.576817
0.217000	1.978469
0.218000	2.355965
0.219000	2.447440
0.220000	2.437132
0.221000	2.410721
0.222000	2.123412
0.223000	1.569087
0.224000	1.024747
0.225000	0.849528
0.226000	0.799926
0.227000	0.845985
0.228000	0.925864
0.229000	1.203510
0.230000	1.466339
0.231000	1.737542
0.232000	1.754613
0.233000	1.548151
0.234000	1.486953
0.235000	1.374864
0.236000	1.354250
0.237000	1.307224
0.238000	1.303681
0.239000	1.271150
0.240000	1.404819
0.241000	1.562323
0.242000	1.544930
0.243000	1.450556
0.244000	1.546862
0.245000	1.649289
0.246000	1.665393
0.247000	1.661850
0.248000	1.477934
0.249000	1.314632
0.250000	1.352962
0.251000	1.343299
0.252000	1.185150
0.253000	1.144889
0.254000	1.268251
0.255000	1.389036
0.256000	1.240551
0.257000	1.275659
0.258000	1.541387
0.259000	1.907286
0.260000	1.974926
0.261000	1.927900
0.262000	1.963653
0.263000	1.942395
0.264000	1.913084
0.265000	1.933698
0.266000	1.772651
0.267000	1.634794
0.268000	1.416736
0.269000	1.229277
0.270000	1.092709
0.271000	0.968703
0.272000	0.986418
0.273000	1.069196
0.274000	1.168724
0.275000	1.278558
0.276000	1.298528
0.277000	1.305292
0.278000	1.484054
0.279000	1.500803
0.280000	1.495327
0.281000	1.440893
0.282000	1.370355
0.283000	1.306258
0.284000	1.334280
0.285000	1.451522
0.286000	1.630607
0.287000	1.699857
0.288000	1.630285
0.289000	1.489852
0.290000	1.342977
0.291000	1.220259
0.292000	1.240873
0.293000	1.360370
0.294000	1.412871
0.295000	1.507567
0.296000	1.486309
0.297000	1.851242
0.298000	2.131786
0.299000	2.142738
0.300000	1.922747
0.301000	1.636405
0.302000	1.393545
0.303000	1.302393
0.304000	1.074994
0.305000	1.070163
0.306000	1.184828
0.307000	1.292408
0.308000	1.454421
0.309000	1.655408
0.310000	1.962365
0.311000	2.146603
0.312000	1.905676
0.313000	1.378085
0.314000	1.065976
0.315000	0.806368
0.316000	0.778345
0.317000	0.912014
0.318000	1.117833
0.319000	1.179031
0.320000	1.220581
0.321000	1.343299
0.322000	1.540743
0.323000	1.684075
0.324000	2.144992
0.325000	2.423282
0.326000	2.407178
0.327000	2.165928
0.328000	1.723048
0.329000	1.308835
0.330000	1.034088
0.331000	0.887213
0.332000	1.098829
0.333000	1.642525
0.334000	2.144348
0.335000	2.317957
0.336000	2.237434
0.337000	1.895369
0.338000	1.543319
0.339000	1.207053
0.340000	0.996725
0.341000	1.088522
0.342000	1.246026
0.343000	1.438961
0.344000	1.636727
0.345000	1.560713
0.346000	1.533657
0.347000	1.540098
0.348000	1.553626
0.349000	1.541387
0.350000	1.471170
0.351000	1.342655
0.352000	1.254401
0.353000	1.218326
0.354000	1.310123
0.355000	1.346842
0.356000	1.338467
0.357000	1.432519
0.358000	1.622555
0.359000	1.592922
0.360000	1.424467
0.361000	1.340078
0.362000	1.240229
0.363000	1.175810
0.364000	1.369388
0.365000	1.722082
0.366000	1.926290
0.367000	1.968484
0.368000	1.774583
0.369000	1.333636
0.370000	1.047938
0.371000	1.003489
0.372000	1.063399
0.373000	1.191270
0.374000	1.544930
0.375000	2.038379
0.376000	2.315058
0.377000	2.334706
0.378000	2.175591
0.379000	1.867024
0.380000	1.612892
0.381000	1.399987
0.382000	1.202221
0.383000	1.134582
0.384000	1.148110
0.385000	1.278558
0.386000	1.428010
0.387000	1.481799
0.388000	1.530114
0.389000	1.563289
0.390000	1.639626
0.391000	1.527859
0.392000	1.304647
0.393000	1.275337
0.394000	1.243127
0.395000	1.275981
0.396000	1.439927
0.397000	1.598075
0.398000	1.774261
0.399000	1.950125
0.400000	2.074131
0.401000	1.994896
0.402000	1.891182
0.403000	1.668292
0.404000	1.496938
0.405000	1.408684
0.406000	1.275659
0.407000	1.175488
0.408000	1.100118
0.409000	1.181285
0.410000	1.324295
0.411000	1.586480
0.412000	1.837714
0.413000	2.022596
0.414000	1.950125
0.415000	1.775550
0.416000	1.597753
0.417000	1.421246
0.418000	1.317853
0.419000	1.340722
0.420000	1.429942
0.421000	1.495649
0.422000	1.676344
0.423000	1.714996
0.424000	1.687618
0.425000	1.640914
0.426000	1.524316
0.427000	1.486309
0.428000	1.412227
0.429000	1.268251
0.430000	1.155840
0.431000	1.159705
0.432000	1.279202
0.433000	1.440893
0.434000	1.676022
0.435000	1.821609
0.436000	1.752681
0.437000	1.658629
0.438000	1.707910
0.439000	1.778448
0.440000	1.643813
0.441000	1.612892
0.442000	1.564900
0.443000	1.419313
0.444000	1.329449
0.445000	1.252790
0.446000	1.278558
0.447000	1.364235
0.448000	1.548151
0.449000	1.771362
0.450000	1.810658
0.451000	1.847055
0.452000	1.776838
0.453000	1.560713
0.454000	1.466661
0.455000	1.409328
0.456000	1.321074
0.457000	1.278880
0.458000	1.315921
0.459000	1.330737
0.460000	1.294985
0.461000	1.293052
0.462000	1.509822
0.463000	1.679243
0.464000	1.781025
0.465000	1.880552
0.466000	1.819354
0.467000	1.648000
0.468000	1.426077
0.469000	1.317531
0.470000	1.284678
0.471000	1.323973
0.472000	1.262131
0.473000	1.323007
0.474000	1.530114
0.475000	1.835459
0.476000	2.154011
0.477000	2.218108
0.478000	2.162708
0.479000	2.168183
0.480000	2.033225
0.481000	1.785857
0.482000	1.481155
0.483000	1.160349
0.484000	1.044395
0.485000	1.169368
0.486000	1.315599
0.487000	1.232498
0.488000	1.302715
0.489000	1.442826
0.490000	1.376152
0.491000	1.380662
0.492000	1.378407
0.493000	1.456676
0.494000	1.423178
0.495000	1.562323
0.496000	1.901811
0.497000	2.270609
0.498000	2.322789
0.499000	2.232280
0.500000	2.096034
0.501000	1.948192
0.502000	1.430264
0.503000	1.117833
0.504000	1.027968
0.505000	0.986418
0.506000	1.176132
0.507000	1.403530
0.508000	1.771362
0.509000	2.258370
0.510000	2.393005
0.511000	2.362729
0.512000	2.178168
0.513000	1.868635
0.514000	1.508533
0.515000	1.333958
0.516000	1.153585
0.517000	0.995759
0.518000	1.055668
0.519000	1.161638
0.520000	1.213495
0.521000	1.107848
0.522000	1.039564
0.523000	0.930052
0.524000	1.023137
0.525000	1.538488
0.526000	2.071555
0.527000	2.293156
0.528000	2.308617
0.529000	2.006492
0.530000	1.518196
0.531000	1.101084
0.532000	0.972246
0.533000	1.109136
0.534000	1.106559
0.535000	1.114290
0.536000	1.155840
0.537000	1.227667
0.538000	1.277269
0.539000	1.380984
0.540000	1.424144
0.541000	1.409650
0.542000	1.480189
0.543000	1.539776
0.544000	1.451522
0.545000	1.491140
0.546000	1.770396
0.547000	1.776838
0.548000	1.572630
0.549000	1.706299
0.550000	1.779093
0.551000	1.631251
0.552000	1.416414
0.553000	1.202866
0.554000	1.055991
0.555000	1.102050
0.556000	1.272438
0.557000	1.457642
0.558000	1.693738
0.559000	1.827085
0.560000	1.836748
0.561000	1.808403
0.562000	1.695992
0.563000	1.513043
0.564000	1.445725
0.565000	1.530436
0.566000	1.598075
0.567000	1.658951
0.568000	1.678921
0.569000	1.707266
0.570000	1.755902
0.571000	1.760411
0.572000	1.828695
0.573000	2.200393
0.574000	2.426503
0.575000	2.469342
0.576000	2.486091
0.577000	2.479005
0.578000	2.410399
0.579000	2.349845
0.580000	2.291868
0.581000	2.133075
0.582000	1.955601
0.583000	1.863159
0.584000	1.787789
0.585000	1.499515
0.586000	1.484054
0.587000	1.565866
0.588000	1.564256
0.589000	1.598720
0.590000	1.531402
0.591000	1.642525
0.592000	1.668292
0.593000	1.667004
0.594000	1.743662
0.595000	1.887961
0.596000	2.021630
0.597000	1.978469
0.598000	1.737542
0.599000	1.606772
0.600000	1.605484
0.601000	1.534301
0.602000	1.602263
0.603000	1.703400
0.604000	1.793909
0.605000	1.943039
0.606000	2.138873
0.607000	2.353066
0.608000	2.439709
0.609000	2.461290
0.610000	2.458713
0.611000	2.411365
0.612000	2.217142
0.613000	1.939174
0.614000	1.850598
0.615000	1.716928
0.616000	1.716928
0.617000	1.993930
0.618000	2.111172
0.619000	2.090558
0.620000	2.256115
0.621000	2.356609
0.622000	2.422316
0.623000	2.468054
0.624000	2.467087
0.625000	2.489312
0.626000	2.498975
0.627000	2.767924
0.628000	2.767924
0.629000	2.758906
0.630000	2.763415
0.631000	2.769213
0.632000	2.767924
0.633000	2.765670
0.634000	2.761482
0.635000	2.767280
0.636000	2.768569
0.637000	2.765348
0.638000	2.761482
0.639000	2.764381
0.640000	2.757939
0.641000	2.592704
0.642000	2.495110
0.643000	2.464833
0.644000	2.480615
0.645000	2.477716
0.646000	2.490600
0.647000	2.495754
0.648000	2.482548
0.649000	2.448084
0.650000	2.449694
0.651000	2.456458
0.652000	2.471919
0.653000	2.472563
0.654000	2.424249
0.655000	2.399447
0.656000	2.323755
0.657000	2.201037
0.658000	2.123734
0.659000	2.041922
0.660000	2.111817
0.661000	2.241943
0.662000	2.355965
0.663000	2.370459
0.664000	2.381732
0.665000	2.277373
0.666000	2.053195
0.667000	1.868957
0.668000	1.895691
0.669000	1.926290
0.670000	1.791654
0.671000	1.846088
0.672000	1.933054
0.673000	1.940462
0.674000	1.919204
0.675000	1.856073
0.676000	1.868957
0.677000	1.851886
0.678000	1.744951
0.679000	1.671513
0.680000	1.538166
0.681000	1.430586
0.682000	1.381628
0.683000	1.318497
0.684000	1.208985
0.685000	1.165503
0.686000	1.215427
0.687000	1.306258
0.688000	1.366490
0.689000	1.463440
0.690000	1.574240
0.691000	1.870890
0.692000	2.118258
0.693000	2.142093
0.694000	2.057705
0.695000	1.925968
0.696000	1.674412
0.697000	1.200933
0.698000	0.945512
0.699000	0.861768
0.700000	0.815064
0.701000	0.781244
0.702000	0.780922
0.703000	0.844375
0.704000	0.934561
0.705000	1.083047
0.706000	1.243772
0.707000	1.290153
0.708000	1.232820
0.709000	1.199323
0.710000	1.229922
0.711000	1.285966
0.712000	1.448302
0.713000	1.564900
0.714000	1.537200
0.715000	1.381306
0.716000	1.241195
0.717000	1.175488
0.718000	1.182574
0.719000	1.212851
0.720000	1.286932
0.721000	1.448302
0.722000	1.623199
0.723000	1.814201
0.724000	1.933698
0.725000	1.971383
0.726000	1.890860
0.727000	1.699535
0.728000	1.502736
0.729000	1.414804
0.730000	1.372931
0.731000	1.342977
0.732000	1.355216
0.733000	1.358759
0.734000	1.409972
0.735000	1.494039
0.736000	1.605806
0.737000	1.633184
0.738000	1.517552
0.739000	1.401920
0.740000	1.352317
0.741000	1.331381
0.742000	1.434451
0.743000	1.653154
0.744000	1.769108
0.745000	1.786823
0.746000	1.705977
0.747000	1.746561
0.748000	1.673768
0.749000	1.637371
0.750000	1.640592
0.751000	1.540421
0.752000	1.355216
0.753000	1.205120
0.754000	1.113645
0.755000	1.113968
0.756000	1.209952
0.757000	1.465373
0.758000	1.759767
0.759000	1.825796
0.760000	1.731101
0.761000	1.627708
0.762000	1.456032
0.763000	1.295629
0.764000	1.238940
0.765000	1.255045
0.766000	1.333636
0.767000	1.354572
0.768000	1.395478
0.769000	1.364879
0.770000	1.455066
0.771000	1.501769
0.772000	1.499192
0.773000	1.362302
0.774000	1.265352
0.775000	1.236041
0.776000	1.210274
0.777000	1.132005
0.778000	1.193847
0.779000	1.362624
0.780000	1.485342
0.781000	1.566188
0.782000	1.449912
0.783000	1.271794
0.784000	1.208019
0.785000	1.228311
0.786000	1.366167
0.787000	1.414804
0.788000	1.452167
0.789000	1.542675
0.790000	1.450234
0.791000	1.259232
0.792000	1.150686
0.793000	1.072739
0.794000	1.050193
0.795000	1.063077
0.796000	1.145533
0.797000	1.214783
0.798000	1.178709
0.799000	1.203832
0.800000	1.259876
0.801000	1.310767
0.802000	1.363591
0.803000	1.404497
0.804000	1.532368
0.805000	1.584225
0.806000	1.552338
0.807000	1.432841
0.808000	1.386137
0.809000	1.471492
0.810000	1.515297
0.811000	1.493717
0.812000	1.471814
0.813000	1.380984
0.814000	1.339434
0.815000	1.262775
0.816000	1.147465
0.817000	1.077571
0.818000	1.075316
0.819000	1.054058
0.820000	1.093031
0.821000	1.197712
0.822000	1.298206
0.823000	1.485987
0.824000	1.517552
0.825000	1.483088
0.826000	1.413515
0.827000	1.557492
0.828000	1.749138
0.829000	1.816456
0.830000	1.697281
0.831000	1.630607
0.832000	1.595821
0.833000	1.486631
0.834000	1.323973
0.835000	1.161315
0.836000	1.059534
0.837000	1.232176
0.838000	1.624809
0.839000	1.825796
0.840000	1.904387
0.841000	1.903421
0.842000	1.690839
0.843000	1.355538
0.844000	1.073706
0.845000	0.872719
0.846000	0.819573
0.847000	0.864344
0.848000	1.019594
0.849000	1.190304
0.850000	1.320108
0.851000	1.427365
0.852000	1.371321
0.853000	1.261487
0.854000	1.189660
0.855000	1.136514
0.856000	1.061466
0.857000	1.160671
0.858000	1.221225
0.859000	1.340400
0.860000	1.539132
0.861000	1.542031
0.862000	1.460541
0.863000	1.436706
0.864000	1.474713
0.865000	1.581649
0.866000	1.611926
0.867000	1.641880
0.868000	1.769430
0.869000	2.019053
0.870000	2.269643
0.871000	2.408466
0.872000	2.465799
0.873000	2.404601
0.874000	2.118581
0.875000	1.698891
0.876000	1.294663
0.877000	0.980621
0.878000	0.791229
0.879000	0.740982
0.880000	0.762885
0.881000	0.819573
0.882000	0.870142
0.883000	0.987385
0.884000	1.152297
0.885000	1.346198
0.886000	1.437028
0.887000	1.415448
0.888000	1.344265
0.889000	1.270828
0.890000	1.276303
0.891000	1.461830
0.892000	1.799063
0.893000	1.962687
0.894000	2.008424
0.895000	1.936919
0.896000	1.858650
0.897000	1.773939
0.898000	1.510788
0.899000	1.326872
0.900000	1.325584
0.901000	1.416414
0.902000	1.353928
0.903000	1.226056
0.904000	1.068552
0.905000	1.028613
0.906000	1.001879
0.907000	1.033766
0.908000	1.185473
0.909000	1.380662
0.910000	1.471170
0.911000	1.441215
0.912000	1.389036
0.913000	1.354250
0.914000	1.299172
0.915000	1.212851
0.916000	1.188371
0.917000	1.225734
0.918000	1.407073
0.919000	1.617401
0.920000	1.731101
0.921000	1.864770
0.922000	1.810336
0.923000	1.844478
0.924000	1.899234
0.925000	1.754613
0.926000	1.635761
0.927000	1.432519
0.928000	1.354572
0.929000	1.212528
0.930000	1.131683
0.931000	1.165825
0.932000	1.225090
0.933000	1.420279
0.934000	1.607094
0.935000	1.696636
0.936000	1.744629
0.937000	1.729812
0.938000	1.604839
0.939000	1.500803
0.940000	1.676667
0.941000	1.883129
0.942000	1.987488
0.943000	1.955923
0.944000	1.780059
0.945000	1.510144
0.946000	1.223480
0.947000	1.077893
0.948000	1.143600
0.949000	1.214461
0.950000	1.362947
0.951000	1.459897
0.952000	1.561357
0.953000	1.584548
0.954000	1.454421
0.955000	1.388070
0.956000	1.436062
0.957000	1.473747
0.958000	1.521095
0.959000	1.574240
0.960000	1.676667
0.961000	1.741408
0.962000	1.651865
0.963000	1.481155
0.964000	1.433807
0.965000	1.642202
0.966000	1.967518
0.967000	2.010357
0.968000	1.829339
0.969000	1.528181
0.970000	1.230888
0.971000	0.985452
0.972000	0.919745
0.973000	0.931018
0.974000	1.109780
0.975000	1.339112
0.976000	1.420601
0.977000	1.435096
0.978000	1.417058
0.979000	1.447335
0.980000	1.419957
0.981000	1.420601
0.982000	1.722726
0.983000	1.976215
0.984000	2.008102
0.985000	1.858006
0.986000	1.633184
0.987000	1.517552
0.988000	1.459575
0.989000	1.487919
0.990000	1.398699
0.991000	1.385493
0.992000	1.445725
0.993000	1.472781
0.994000	1.536555
0.995000	1.610315
0.996000	1.683753
0.997000	1.675700
0.998000	1.587124
0.999000	1.473425
1.000000	1.468593
1.001000	1.677311
1.002000	2.000694
1.003000	2.108273
1.004000	2.055772
1.005000	1.809047
1.006000	1.376797
1.007000	1.013474
1.008000	0.869820
1.009000	0.811199
1.010000	0.886891
1.011000	1.131683
1.012000	1.362947
1.013000	1.464406
1.014000	1.524638
1.015000	1.631251
1.016000	1.703723
1.017000	1.703078
1.018000	1.631251
1.019000	1.605484
1.020000	1.645745
1.021000	1.679565
1.022000	1.579716
1.023000	1.502736
1.024000	1.528181
1.025000	1.634150
1.026000	1.814523
1.027000	1.939496
1.028000	1.968806
1.029000	1.944649
1.030000	1.915339
1.031000	1.836103
1.032000	1.675378
1.033000	1.553949
1.034000	1.439927
1.035000	1.338789
1.036000	1.236041
1.037000	1.160671
1.038000	1.182574
1.039000	1.204798
1.040000	1.297239
1.041000	1.242161
1.042000	1.081758
1.043000	0.944868
1.044000	1.063399
1.045000	1.237330
1.046000	1.345876
1.047000	1.391291
1.048000	1.571986
1.049000	1.706621
1.050000	1.726591
1.051000	1.658307
1.052000	1.622877
1.053000	1.704045
1.054000	1.739153
1.055000	1.683431
1.056000	1.812268
1.057000	2.025173
1.058000	2.146603
1.059000	2.103764
1.060000	1.880552
1.061000	1.485020
1.062000	1.176132
1.063000	1.094320
1.064000	1.079181
1.065000	1.156162
1.066000	1.282745
1.067000	1.615791
1.068000	1.917271
1.069000	1.951413
1.070000	1.711775
1.071000	1.439927
1.072000	1.225090
1.073000	1.089810
1.074000	1.131039
1.075000	1.447013
1.076000	1.769752
1.077000	2.019375
1.078000	2.096034
1.079000	2.000050
1.080000	1.641558
1.081000	1.286610
1.082000	1.080470
1.083000	1.072417
1.084000	1.134904
1.085000	1.275981
1.086000	1.576495
1.087000	1.815811
1.088000	1.813879
1.089000	1.697603
1.090000	1.427043
1.091000	1.173555
1.092000	0.992216
1.093000	0.951310
1.094000	1.114290
1.095000	1.345876
1.096000	1.495005
1.097000	1.551372
1.098000	1.651543
1.099000	1.829017
1.100000	1.932410
1.101000	1.865092
1.102000	1.626742
1.103000	1.321396
1.104000	1.159383
1.105000	1.160993
1.106000	1.291119
1.107000	1.715962
1.108000	2.063824
1.109000	2.218430
1.110000	2.176880
1.111000	1.931443
1.112000	1.608383
1.113000	1.493395
1.114000	1.422534
1.115000	1.403530
1.116000	1.434129
1.117000	1.534623
1.118000	1.627386
1.119000	1.701790
1.120000	1.663461
1.121000	1.656053
1.122000	1.578106
1.123000	1.405141
1.124000	1.296917
1.125000	1.295629
1.126000	1.332025
1.127000	1.335891
1.128000	1.288221
1.129000	1.218004
1.130000	1.227989
1.131000	1.284678
1.132000	1.392901
1.133000	1.439605
1.134000	1.460219
1.135000	1.535911
1.136000	1.747205
1.137000	1.934020
1.138000	2.087337
1.139000	2.231958
1.140000	2.206190
1.141000	1.991997
1.142000	1.654120
1.143000	1.309479
1.144000	1.162926
1.145000	1.237652
1.146000	1.280168
1.147000	1.240551
1.148000	1.192236
1.149000	1.237008
1.150000	1.397089
1.151000	1.583581
1.152000	1.819677
1.153000	2.070266
1.154000	2.171726
1.155000	2.102476
1.156000	2.053195
1.157000	1.935953
1.158000	1.682464
1.159000	1.672157
1.160000	1.563289
1.161000	1.420924
1.162000	1.468271
1.163000	1.567154
1.164000	1.635761
1.165000	1.715318
1.166000	1.731745
1.167000	1.590989
1.168000	1.336857
1.169000	1.053092
1.170000	0.903640
1.171000	0.895588
1.172000	1.024747
1.173000	1.334924
1.174000	1.556525
1.175000	1.708876
1.176000	1.697603
1.177000	1.632218
1.178000	1.515619
1.179000	1.401598
1.180000	1.373576
1.181000	1.477934
1.182000	1.642525
1.183000	1.679888
1.184000	1.492428
1.185000	1.305292
1.186000	1.294018
1.187000	1.313022
1.188000	1.312700
1.189000	1.434774
1.190000	1.754613
1.191000	2.067690
1.192000	2.164640
1.193000	2.160453
1.194000	1.951091
1.195000	1.675056
1.196000	1.426721
1.197000	1.220581
1.198000	1.197068
1.199000	1.237652
1.200000	1.267929
1.201000	1.271472
1.202000	1.241517
1.203000	1.356505
1.204000	1.573596
1.205000	1.747527
1.206000	1.952380
1.207000	2.106663
1.208000	2.186543
1.209000	2.087337
1.210000	1.948192
1.211000	1.683431
1.212000	1.526248
1.213000	1.490496
1.214000	1.382594
1.215000	1.316887
1.216000	1.282423
1.217000	1.334924
1.218000	1.363269
1.219000	1.309157
1.220000	1.311089
1.221000	1.510466
1.222000	1.803250
1.223000	2.103120
1.224000	2.209411
1.225000	2.127599
1.226000	1.918238
1.227000	1.725303
1.228000	1.458609
1.229000	1.275981
1.230000	1.345553
1.231000	1.484054
1.232000	1.550406
1.233000	1.611281
1.234000	1.626420
1.235000	1.544930
1.236000	1.425755
1.237000	1.391935
1.238000	1.415770
1.239000	1.515619
1.240000	1.737220
1.241000	1.983623
1.242000	1.990387
1.243000	1.878298
1.244000	1.855107
1.245000	1.697925
1.246000	1.645745
1.247000	1.763310
1.248000	1.641236
1.249000	1.415126
1.250000	1.223158
1.251000	1.175810
1.252000	1.181607
1.253000	1.215427
1.254000	1.296595
1.255000	1.335568
1.256000	1.434451
1.257000	1.567799
1.258000	1.774583
1.259000	1.921459
1.260000	1.782958
1.261000	1.569731
1.262000	1.340078
1.263000	1.260198
1.264000	1.275981
1.265000	1.258588
1.266000	1.190304
1.267000	1.277914
1.268000	1.434451
1.269000	1.716284
1.270000	1.996184
1.271000	2.003271
1.272000	1.944971
1.273000	1.831916
1.274000	1.635116
1.275000	1.457642
1.276000	1.282101
1.277000	1.269539
1.278000	1.346520
1.279000	1.422856
1.280000	1.453777
1.281000	1.546218
1.282000	1.569731
1.283000	1.564900
1.284000	1.668936
1.285000	1.650577
1.286000	1.699857
1.287000	1.717573
1.288000	1.676022
1.289000	1.670547
1.290000	1.695670
1.291000	1.641880
1.292000	1.622233
1.293000	1.593566
1.294000	1.493073
1.295000	1.374220
1.296000	1.338789
1.297000	1.292730
1.298000	1.256655
1.299000	1.371321
1.300000	1.529469
1.301000	1.627708
1.302000	1.769430
1.303000	1.919526
1.304000	1.945616
1.305000	1.915017
1.306000	1.771684
1.307000	1.641236
1.308000	1.605484
1.309000	1.612248
1.310000	1.637049
1.311000	1.619012
1.312000	1.546218
1.313000	1.488885
1.314000	1.595499
1.315000	1.736898
1.316000	1.882485
1.317000	1.858650
1.318000	1.850920
1.319000	1.650899
1.320000	1.444114
1.321000	1.238940
1.322000	1.076605
1.323000	1.133937
1.324000	1.246348
1.325000	1.323007
1.326000	1.369388
1.327000	1.426721
1.328000	1.518196
1.329000	1.625776
1.330000	1.607094
1.331000	1.565866
1.332000	1.582937
1.333000	1.637371
1.334000	1.629963
1.335000	1.567154
1.336000	1.496938
1.337000	1.465695
1.338000	1.546218
1.339000	1.781669
1.340000	1.852852
1.341000	1.716284
1.342000	1.634794
1.343000	1.493395
1.344000	1.380984
1.345000	1.424144
1.346000	1.724337
1.347000	2.033225
1.348000	2.027750
1.349000	1.782958
1.350000	1.589057
1.351000	1.575207
1.352000	1.768141
1.353000	1.823542
1.354000	1.951735
1.355000	2.079607
1.356000	1.895369
1.357000	1.542031
1.358000	1.362302
1.359000	1.300782
1.360000	1.361980
1.361000	1.389036
1.362000	1.576495
1.363000	1.832560
1.364000	1.877332
1.365000	1.724337
1.366000	1.464406
1.367000	1.236041
1.368000	1.087556
1.369000	1.150364
1.370000	1.270505
1.371000	1.414804
1.372000	1.600652
1.373000	1.636083
1.374000	1.615791
1.375000	1.588735
1.376000	1.536555
1.377000	1.476002
1.378000	1.437350
1.379000	1.464084
1.380000	1.474713
1.381000	1.543319
1.382000	1.611603
1.383000	1.729168
1.384000	2.059315
1.385000	2.329875
1.386000	2.378189
1.387000	2.302175
1.388000	2.104086
1.389000	1.966552
1.390000	1.646068
1.391000	1.537844
1.392000	1.447013
1.393000	1.314954
1.394000	1.240873
1.395000	1.199645
1.396000	1.219937
1.397000	1.375186
1.398000	1.725947
1.399000	2.040634
1.400000	2.272542
1.401000	2.381410
1.402000	2.349845
1.403000	2.080895
1.404000	1.634150
1.405000	1.343299
1.406000	1.084013
1.407000	1.037631
1.408000	1.037631
1.409000	1.038597
1.410000	1.105593
1.411000	1.151975
1.412000	1.207375
1.413000	1.341688
1.414000	1.470204
1.415000	1.571986
1.416000	1.634150
1.417000	1.630285
1.418000	1.594855
1.419000	1.524960
1.420000	1.709842
1.421000	2.115682
1.422000	2.340182
1.423000	2.319246
1.424000	2.026783
1.425000	1.834171
1.426000	1.824508
1.427000	1.575529
1.428000	1.268251
1.429000	1.186117
1.430000	1.228633
1.431000	1.431553
1.432000	1.615469
1.433000	1.777804
1.434000	1.996507
1.435000	2.058027
1.436000	1.946904
1.437000	1.838036
1.438000	1.657663
1.439000	1.442504
1.440000	1.299816
1.441000	1.250536
1.442000	1.302071
1.443000	1.279202
1.444000	1.213173
1.445000	1.202866
1.446000	1.260843
1.447000	1.504346
1.448000	1.903421
1.449000	2.192984
1.450000	2.117936
1.451000	1.838358
1.452000	1.458931
1.453000	1.253112
1.454000	1.246348
1.455000	1.209630
1.456000	1.190626
1.457000	1.211562
1.458000	1.196102
1.459000	1.213817
1.460000	1.390969
1.461000	1.705333
1.462000	1.902777
1.463000	1.838358
1.464000	1.853174
1.465000	1.773939
1.466000	1.708554
1.467000	1.617723
1.468000	1.637371
1.469000	1.869601
1.470000	1.999405
1.471000	1.881519
1.472000	1.639948
1.473000	1.609993
1.474000	1.874433
1.475000	2.273830
1.476000	2.337605
1.477000	2.181711
1.478000	1.857684
1.479000	1.673124
1.480000	1.501769
1.481000	1.317853
1.482000	1.167757
1.483000	1.100762
1.484000	1.080470
1.485000	1.139735
1.486000	1.230244
1.487000	1.205442
1.488000	1.264064
1.489000	1.435740
1.490000	1.601296
1.491000	1.663139
1.492000	1.583259
1.493000	1.519162
1.494000	1.562001
1.495000	1.513043
1.496000	1.506923
1.497000	1.447979
1.498000	1.435418
1.499000	1.542031
1.500000	1.607738
1.501000	1.695670
1.502000	1.749138
1.503000	1.734966
1.504000	1.523350
1.505000	1.296273
1.506000	1.247315
1.507000	1.309479
1.508000	1.453133
1.509000	1.596465
1.510000	1.785857
1.511000	1.883129
1.512000	1.874433
1.513000	1.927900
1.514000	1.925324
1.515000	1.770396
1.516000	1.802928
1.517000	1.890537
1.518000	1.867347
1.519000	1.872178
1.520000	1.718217
1.521000	1.403208
1.522000	1.341366
1.523000	1.526571
1.524000	1.639948
1.525000	1.779093
1.526000	1.924035
1.527000	1.977181
1.528000	1.912118
1.529000	1.821609
1.530000	1.684719
1.531000	1.368100
1.532000	1.098507
1.533000	1.224446
1.534000	1.380018
1.535000	1.398055
1.536000	1.277914
1.537000	1.296595
1.538000	1.611281
1.539000	1.819032
1.540000	1.902455
1.541000	1.940784
1.542000	1.792621
1.543000	1.746561
1.544000	1.739797
1.545000	1.509822
1.546000	1.387104
1.547000	1.317209
1.548000	1.322363
1.549000	1.327194
1.550000	1.260520
1.551000	1.139413
1.552000	1.201577
1.553000	1.250536
1.554000	1.122020
1.555000	0.977400
1.556000	0.911692
1.557000	0.957108
1.558000	1.117511
1.559000	1.478901
1.560000	1.818710
1.561000	2.020342
1.562000	2.102798
1.563000	2.064791
1.564000	2.059637
1.565000	2.016476
1.566000	1.818066
1.567000	1.658951
1.568000	1.651543
1.569000	1.848665
1.570000	2.138550
1.571000	2.066079
1.572000	1.846733
1.573000	1.611281
1.574000	1.482766
1.575000	1.451522
1.576000	1.535267
1.577000	1.648322
1.578000	1.700824
1.579000	1.650255
1.580000	1.476646
1.581000	1.308513
1.582000	1.273404
1.583000	1.344909
1.584000	1.522061
1.585000	1.760733
1.586000	1.742052
1.587000	1.775228
1.588000	1.906320
1.589000	1.967196
1.590000	1.829017
1.591000	1.539776
1.592000	1.271472
1.593000	1.140379
1.594000	1.199967
1.595000	1.278880
1.596000	1.579716
1.597000	1.610315
1.598000	1.599364
1.599000	1.582615
1.600000	1.552982
1.601000	1.318175
1.602000	1.320752
1.603000	1.565544
1.604000	1.722726
1.605000	1.738187
1.606000	1.730778
1.607000	1.775228
1.608000	1.663461
1.609000	1.604517
1.610000	1.491140
1.611000	1.432841
1.612000	1.350385
1.613000	1.136514
1.614000	1.099795
1.615000	1.121054
1.616000	1.169690
1.617000	1.347486
1.618000	1.461185
1.619000	1.669258
1.620000	1.966552
1.621000	2.124700
1.622000	2.209733
1.623000	2.225838
1.624000	2.205224
1.625000	2.383665
1.626000	2.459035
1.627000	2.342114
1.628000	1.935309
1.629000	1.511432
1.630000	1.176132
1.631000	0.959040
1.632000	0.858225
1.633000	0.929730
1.634000	1.056635
1.635000	1.123952
1.636000	1.140057
1.637000	1.173555
1.638000	1.484376
1.639000	2.139839
1.640000	2.397193
1.641000	2.410077
1.642000	2.314414
1.643000	2.080251
1.644000	1.494683
1.645000	1.172267
1.646000	1.013474
1.647000	1.191270
1.648000	1.671513
1.649000	2.119869
1.650000	2.293478
1.651000	2.256437
1.652000	1.982657
1.653000	1.368100
1.654000	0.901063
1.655000	0.814098
1.656000	0.886891
1.657000	1.070807
1.658000	1.476324
1.659000	1.750748
1.660000	1.836748
1.661000	1.928545
1.662000	1.968484
1.663000	1.852530
1.664000	1.722726
1.665000	1.607094
1.666000	1.510788
1.667000	1.442182
1.668000	1.473103
1.669000	1.601296
1.670000	1.623199
1.671000	1.661850
1.672000	1.932732
1.673000	2.173015
1.674000	2.047398
1.675000	1.798418
1.676000	1.575207
1.677000	1.348130
1.678000	1.202544
1.679000	1.078859
1.680000	1.066620
1.681000	1.102050
1.682000	1.112035
1.683000	1.168724
1.684000	1.304970
1.685000	1.638981
1.686000	1.994252
1.687000	2.212954
1.688000	2.247419
1.689000	2.240010
1.690000	2.240655
1.691000	2.047398
1.692000	1.776194
1.693000	1.441538
1.694000	1.200289
1.695000	1.098507
1.696000	1.082724
1.697000	1.615469
1.698000	2.294122
1.699000	2.431335
1.700000	2.403957
1.701000	2.189764
1.702000	1.679243
1.703000	1.187083
1.704000	0.916524
1.705000	0.808300
1.706000	0.845341
1.707000	1.039242
1.708000	1.302071
1.709000	1.647356
1.710000	1.982979
1.711000	1.924679
1.712000	1.801639
1.713000	1.624165
1.714000	1.412227
1.715000	1.507245
1.716000	1.636727
1.717000	1.792621
1.718000	1.881841
1.719000	2.011967
1.720000	1.978791
1.721000	1.741730
1.722000	1.502736
1.723000	1.365523
1.724000	1.306580
1.725000	1.318497
1.726000	1.459575
1.727000	1.577461
1.728000	1.694704
1.729000	1.829984
1.730000	1.908253
1.731000	1.871212
1.732000	1.659273
1.733000	1.491784
1.734000	1.395478
1.735000	1.467627
1.736000	1.597753
1.737000	1.744306
1.738000	1.780059
1.739000	1.629319
1.740000	1.434451
1.741000	1.353928
1.742000	1.319464
1.743000	1.346520
1.744000	1.483410
1.745000	1.773939
1.746000	1.987810
1.747000	2.234535
1.748000	2.168827
1.749000	1.787145
1.750000	1.620944
1.751000	1.635116
1.752000	1.761700
1.753000	1.728202
1.754000	1.685685
1.755000	1.564900
1.756000	1.423500
1.757000	1.373254
1.758000	1.385171
1.759000	1.401276
1.760000	1.540743
1.761000	1.712097
1.762000	1.752681
1.763000	1.695348
1.764000	1.586802
1.765000	1.518518
1.766000	1.585514
1.767000	1.782958
1.768000	1.914695
1.769000	2.135007
1.770000	2.321500
1.771000	2.337283
1.772000	2.329553
1.773000	1.972672
1.774000	1.455710
1.775000	1.147143
1.776000	1.169046
1.777000	1.350385
1.778000	1.512720
1.779000	1.555559
1.780000	1.712419
1.781000	1.789722
1.782000	1.598398
1.783000	1.509177
1.784000	1.426721
1.785000	1.380340
1.786000	1.381306
1.787000	1.368100
1.788000	1.373254
1.789000	1.471492
1.790000	1.640270
1.791000	1.760733
1.792000	1.913084
1.793000	2.071233
1.794000	2.127921
1.795000	2.075742
1.796000	1.913406
1.797000	1.671513
1.798000	1.542675
1.799000	1.398377
1.800000	1.277592
1.801000	1.100440
1.802000	0.999302
1.803000	0.993182
1.804000	1.065009
1.805000	1.227667
1.806000	1.458609
1.807000	1.571664
1.808000	1.632862
1.809000	1.599364
1.810000	1.450556
1.811000	1.366490
1.812000	1.386782
1.813000	1.680210
1.814000	2.141771
1.815000	2.392039
1.816000	2.430691
1.817000	2.362406
1.818000	2.092491
1.819000	1.657985
1.820000	1.436706
1.821000	1.172911
1.822000	1.102694
1.823000	1.120732
1.824000	1.268251
1.825000	1.387426
1.826000	1.598720
1.827000	1.879586
1.828000	2.058349
1.829000	1.971383
1.830000	1.775550
1.831000	1.524960
1.832000	1.231210
1.833000	1.117833
1.834000	1.037309
1.835000	0.912337
1.836000	0.910726
1.837000	1.158094
1.838000	1.640270
1.839000	1.977181
1.840000	2.039989
1.841000	1.928222
1.842000	1.747527
1.843000	1.570697
1.844000	1.486309
1.845000	1.580360
1.846000	1.953990
1.847000	2.405567
1.848000	2.469020
1.849000	2.465799
1.850000	2.412653
1.851000	1.774905
1.852000	1.341366
1.853000	1.273726
1.854000	1.326550
1.855000	1.482444
1.856000	1.811946
1.857000	1.996507
1.858000	2.011323
1.859000	1.743662
1.860000	1.296595
1.861000	1.024747
1.862000	0.904284
1.863000	0.845663
1.864000	0.945512
1.865000	1.185795
1.866000	1.564578
1.867000	1.936275
1.868000	2.024529
1.869000	1.818710
1.870000	1.545574
1.871000	1.310767
1.872000	1.154874
1.873000	1.119121
1.874000	1.209630
1.875000	1.435418
1.876000	1.707588
1.877000	1.889249
1.878000	1.842223
1.879000	1.665071
1.880000	1.415448
1.881000	1.342010
1.882000	1.352962
1.883000	1.377119
1.884000	1.411583
1.885000	1.501447
1.886000	1.581327
1.887000	1.569087
1.888000	1.534945
1.889000	1.493717
1.890000	1.519162
1.891000	1.516263
1.892000	1.541065
1.893000	1.650899
1.894000	1.638981
1.895000	1.586802
1.896000	1.503058
1.897000	1.446691
1.898000	1.624487
1.899000	2.042244
1.900000	2.327620
1.901000	2.427470
1.902000	2.427470
1.903000	2.195561
1.904000	1.685041
1.905000	1.216394
1.906000	1.047938
1.907000	1.107526
1.908000	1.339112
1.909000	1.415126
1.910000	1.399021
1.911000	1.323651
1.912000	1.347808
1.913000	1.357149
1.914000	1.266962
1.915000	1.452167
1.916000	1.705333
1.917000	1.937241
1.918000	1.993930
1.919000	1.961720
1.920000	1.834171
1.921000	1.763632
1.922000	1.778448
1.923000	1.622555
1.924000	1.363591
1.925000	1.348130
1.926000	1.566832
1.927000	1.775550
1.928000	1.827407
1.929000	1.885062
1.930000	1.859616
1.931000	1.596143
1.932000	1.295629
1.933000	1.112679
1.934000	1.079826
1.935000	1.192236
1.936000	1.314310
1.937000	1.429942
1.938000	1.512076
1.939000	1.530758
1.940000	1.460541
1.941000	1.367134
1.942000	1.247637
1.943000	1.158739
1.944000	1.180641
1.945000	1.249891
1.946000	1.339434
1.947000	1.468916
1.948000	1.672801
1.949000	1.724659
1.950000	1.611926
1.951000	1.579716
1.952000	1.579394
1.953000	1.558136
1.954000	1.588413
1.955000	1.523027
1.956000	1.507245
1.957000	1.485665
1.958000	1.476002
1.959000	1.414482
1.960000	1.490174
1.961000	1.641880
1.962000	1.745273
1.963000	1.800673
1.964000	1.769430
1.965000	1.681820
1.966000	1.610959
1.967000	1.552982
1.968000	1.554593
1.969000	1.851886
1.970000	2.065435
1.971000	2.007136
1.972000	2.089270
1.973000	2.059637
1.974000	1.960754
1.975000	1.895369
1.976000	1.551372
1.977000	1.398055
1.978000	1.402564
1.979000	1.401598
1.980000	1.517874
1.981000	1.601941
1.982000	1.554915
1.983000	1.511754
1.984000	1.520451
1.985000	1.493717
1.986000	1.366812
1.987000	1.347486
1.988000	1.428976
1.989000	1.412549
1.990000	1.342010
1.991000	1.317209
1.992000	1.360370
1.993000	1.582937
1.994000	1.722726
1.995000	1.782636
1.996000	1.804216
1.997000	1.811302
1.998000	1.629319
1.999000	1.482766
2.000000	1.542353
2.001000	1.638659
2.002000	1.695670
2.003000	1.720794
2.004000	1.536878
2.005000	1.303681
2.006000	1.142312
2.007000	1.052448
2.008000	1.094320
2.009000	1.233787
2.010000	1.490496
2.011000	1.786179
2.012000	1.963975
2.013000	1.997151
2.014000	1.900844
2.015000	1.756224
2.016000	1.580360
2.017000	1.454421
2.018000	1.238940
2.019000	1.128784
2.020000	1.137480
2.021000	1.198034
2.022000	1.315277
2.023000	1.699213
2.024000	2.001338
2.025000	2.248385
2.026000	2.359185
2.027000	2.259336
2.028000	1.992319
2.029000	1.676344
2.030000	1.324617
2.031000	1.218970
2.032000	1.214139
2.033000	1.344265
2.034000	1.485020
2.035000	1.623199
2.036000	1.724659
2.037000	1.774261
2.038000	1.722082
2.039000	1.472781
2.040000	1.237008
2.041000	1.237008
2.042000	1.295951
2.043000	1.366490
2.044000	1.406107
2.045000	1.362624
2.046000	1.306258
2.047000	1.366490
2.048000	1.485020
2.049000	1.581327
2.050000	1.604195
2.051000	1.486953
2.052000	1.469238
2.053000	1.514009
2.054000	1.602907
2.055000	1.593244
2.056000	1.606772
2.057000	1.673446
2.058000	1.667004
2.059000	1.471814
2.060000	1.263419
2.061000	1.224768
2.062000	1.274048
2.063000	1.496616
2.064000	1.958499
2.065000	2.234535
2.066000	2.335673
2.067000	2.406211
2.068000	2.449372
2.069000	2.450983
2.070000	2.417807
2.071000	2.234213
2.072000	1.649289
2.073000	1.108492
2.074000	0.862412
2.075000	0.768038
2.076000	0.892367
2.077000	1.197390
2.078000	1.697603
2.079000	2.103764
2.080000	2.019697
2.081000	1.648644
2.082000	1.296595
2.083000	1.123630
2.084000	1.022493
2.085000	0.924898
2.086000	0.875618
2.087000	0.930374
2.088000	1.077571
2.089000	1.316243
2.090000	1.569087
2.091000	1.761700
2.092000	2.021630
2.093000	2.289613
2.094000	2.303141
2.095000	2.212632
2.096000	2.100865
2.097000	1.916627
2.098000	1.716928
2.099000	1.475680
2.100000	1.259876
2.101000	1.161960
2.102000	1.177098
2.103000	1.471814
2.104000	1.776194
2.105000	1.994252
2.106000	2.010035
2.107000	1.893436
2.108000	1.757512
2.109000	1.559424
2.110000	1.340722
2.111000	1.229599
2.112000	1.100762
2.113000	1.064043
2.114000	1.065009
2.115000	1.147465
2.116000	1.270828
2.117000	1.421246
2.118000	1.502736
2.119000	1.584225
2.120000	1.926612
2.121000	2.272542
2.122000	2.404923
2.123000	2.450016
2.124000	2.374968
2.125000	1.847055
2.126000	1.463118
2.127000	1.211562
2.128000	1.273082
2.129000	1.550728
2.130000	1.737865
2.131000	2.043210
2.132000	2.282849
2.133000	2.165928
2.134000	1.855429
2.135000	1.624487
2.136000	1.356505
2.137000	1.223802
2.138000	1.284033
2.139000	1.517552
2.140000	1.670547
2.141000	1.549761
2.142000	1.458286
2.143000	1.299494
2.144000	1.080148
2.145000	0.949699
2.146000	0.891723
2.147000	0.956463
2.148000	1.050515
2.149000	1.159705
2.150000	1.220581
2.151000	1.275015
2.152000	1.388714
2.153000	1.492751
2.154000	1.524638
2.155000	1.442504
2.156000	1.555559
2.157000	1.793909
2.158000	2.006169
2.159000	2.290901
2.160000	2.484803
2.161000	2.498653
2.162000	2.759872
2.163000	2.499941
2.164000	2.018087
2.165000	1.259554
2.166000	1.076605
2.167000	1.041496
2.168000	1.095286
2.169000	1.288865
2.170000	1.388392
2.171000	1.377119
2.172000	1.338789
2.173000	1.244738
2.174000	1.278558
2.175000	1.399987
2.176000	1.581649
2.177000	1.751393
2.178000	1.784890
2.179000	1.677311
2.180000	1.505956
2.181000	1.352317
2.182000	1.124275
2.183000	0.903318
2.184000	0.822472
2.185000	0.941969
2.186000	1.171945
2.187000	1.475035
2.188000	1.755580
2.189000	2.044821
2.190000	2.244520
2.191000	2.302819
2.192000	2.348234
2.193000	2.406856
2.194000	2.403635
2.195000	2.170760
2.196000	1.982657
2.197000	1.724337
2.198000	1.379373
2.199000	1.131039
2.200000	0.929730
2.201000	1.009931
2.202000	1.162604
2.203000	1.257944
2.204000	1.324295
2.205000	1.311411
2.206000	1.164214
2.207000	1.065653
2.208000	0.967737
2.209000	1.142312
2.210000	1.602907
2.211000	2.189764
2.212000	2.422638
2.213000	2.457747
2.214000	2.424571
2.215000	2.137262
2.216000	1.591312
2.217000	1.269217
2.218000	1.143600
2.219000	1.318497
2.220000	1.395478
2.221000	1.478901
2.222000	1.479867
2.223000	1.517874
2.224000	1.667970
2.225000	1.949803
2.226000	1.727558
2.227000	1.539132
2.228000	1.371965
2.229000	1.261165
2.230000	1.157128
2.231000	1.129750
2.232000	1.199323
2.233000	1.382594
2.234000	1.603551
2.235000	1.815811
2.236000	1.897946
2.237000	1.889571
2.238000	1.873788
2.239000	1.609027
2.240000	1.507245
2.241000	1.610637
2.242000	1.622555
2.243000	1.533979
2.244000	1.416414
2.245000	1.396122
2.246000	1.359726
2.247000	1.251502
2.248000	1.254723
2.249000	1.440249
2.250000	1.633506
2.251000	1.762344
2.252000	1.876687
2.253000	1.829017
2.254000	1.664105
2.255000	1.383883
2.256000	1.197390
2.257000	1.251502
2.258000	1.413515
2.259000	1.547507
2.260000	1.538166
2.261000	1.422534
2.262000	1.388714
2.263000	1.462152
2.264000	1.391935
2.265000	1.316565
2.266000	1.493073
2.267000	1.751715
2.268000	1.858650
2.269000	1.757512
2.270000	1.782958
2.271000	1.838036
2.272000	1.816778
2.273000	1.781669
2.274000	1.695026
2.275000	1.704045
2.276000	1.706299
2.277000	1.542353
2.278000	1.517552
2.279000	1.519484
2.280000	1.539776
2.281000	1.586480
2.282000	1.533657
2.283000	1.502091
2.284000	1.499837
2.285000	1.589057
2.286000	1.785212
2.287000	2.042244
2.288000	2.276407
2.289000	2.291546
2.290000	1.996829
2.291000	1.623843
2.292000	1.313022
2.293000	1.038597
2.294000	1.026036
2.295000	1.118155
2.296000	1.219937
2.297000	1.443470
2.298000	1.684397
2.299000	1.686329
2.300000	1.403853
2.301000	1.304325
2.302000	1.356827
2.303000	1.354572
2.304000	1.237008
2.305000	1.145211
2.306000	1.222191
2.307000	1.528825
2.308000	1.894725
2.309000	2.118258
2.310000	2.347590
2.311000	2.306362
2.312000	1.950769
2.313000	1.515297
2.314000	1.173877
2.315000	0.968059
2.316000	0.924254
2.317000	1.132971
2.318000	1.370677
2.319000	1.495327
2.320000	1.651865
2.321000	1.667004
2.322000	1.627708
2.323000	1.566832
2.324000	1.540098
2.325000	1.608705
2.326000	1.746239
2.327000	1.945616
2.328000	2.059315
2.329000	2.060603
2.330000	1.924035
2.331000	1.656053
2.332000	1.400954
2.333000	1.160349
2.334000	1.036987
2.335000	1.012186
2.336000	1.082080
2.337000	1.282423
2.338000	1.494361
2.339000	1.675700
2.340000	1.791976
2.341000	1.797452
2.342000	1.837714
2.343000	1.972994
2.344000	2.005847
2.345000	2.002304
2.346000	1.889893
2.347000	1.690195
2.348000	1.488241
2.349000	1.345876
2.350000	1.391935
2.351000	1.650255
2.352000	2.126955
2.353000	2.409754
2.354000	2.446473
2.355000	2.418129
2.356000	2.172048
2.357000	1.733677
2.358000	1.294018
2.359000	0.969025
2.360000	0.841798
2.361000	0.880127
2.362000	0.975145
2.363000	1.127818
2.364000	1.345553
2.365000	1.488885
2.366000	1.558136
2.367000	1.547829
2.368000	1.535911
2.369000	1.542675
2.370000	1.699535
2.371000	1.979436
2.372000	2.103442
2.373000	2.045465
2.374000	1.811302
2.375000	1.521095
2.376000	1.218970
2.377000	1.081114
2.378000	1.104949
2.379000	1.232820
2.380000	1.387104
2.381000	1.361014
2.382000	1.331381
2.383000	1.324295
2.384000	1.286288
2.385000	1.277592
2.386000	1.262775
2.387000	1.389680
2.388000	1.558136
2.389000	1.879908
2.390000	1.976859
2.391000	1.853819
2.392000	1.735288
2.393000	1.746561
2.394000	1.834815
2.395000	2.152723
2.396000	2.364661
2.397000	2.438099
2.398000	2.467732
2.399000	2.451949
2.400000	2.353388
2.401000	1.952702
2.402000	1.533334
2.403000	1.222835
2.404000	1.122020
2.405000	1.087878
2.406000	1.033444
2.407000	0.928763
2.408000	0.937782
2.409000	1.036665
2.410000	1.187083
2.411000	1.348130
2.412000	1.515619
2.413000	1.680210
2.414000	1.870890
2.415000	2.015188
2.416000	2.099577
2.417000	2.103120
2.418000	1.835781
2.419000	1.604195
2.420000	1.412227
2.421000	1.268251
2.422000	1.183218
2.423000	1.159383
2.424000	1.234431
2.425000	1.378407
2.426000	1.469882
2.427000	1.549761
2.428000	1.633828
2.429000	1.665715
2.430000	1.610959
2.431000	1.688262
2.432000	1.761377
2.433000	1.687940
2.434000	1.589701
2.435000	1.342977
2.436000	1.233142
2.437000	1.208663
2.438000	1.259554
2.439000	1.410939
2.440000	1.598720
2.441000	1.783602
2.442000	1.867347
2.443000	1.771362
2.444000	1.657019
2.445000	1.585836
2.446000	1.540743
2.447000	1.472459
2.448000	1.381950
2.449000	1.425111
2.450000	1.644457
2.451000	1.932732
2.452000	2.043210
2.453000	1.997795
2.454000	1.963331
2.455000	1.890215
2.456000	1.849631
2.457000	1.733677
2.458000	1.574885
2.459000	1.526571
2.460000	1.453455
2.461000	1.343621
2.462000	1.309479
2.463000	1.244738
2.464000	1.187405
2.465000	1.253112
2.466000	1.440571
2.467000	1.640592
2.468000	1.791654
2.469000	1.991675
2.470000	2.123090
2.471000	2.086371
2.472000	1.848987
2.473000	1.678277
2.474000	1.676989
2.475000	1.621588
2.476000	1.548151
2.477000	1.476968
2.478000	1.413837
2.479000	1.414804
2.480000	1.490174
2.481000	1.571342
2.482000	1.776516
2.483000	1.817422
2.484000	1.684719
2.485000	1.561679
2.486000	1.537522
2.487000	1.505312
2.488000	1.493717
2.489000	1.610959
2.490000	1.787145
2.491000	1.984911
2.492000	1.904710
2.493000	1.744951
2.494000	1.533012
2.495000	1.393868
2.496000	1.304647
2.497000	1.312700
2.498000	1.300138
2.499000	1.283389
2.500000	1.444436
2.501000	1.572630
2.502000	1.628352
2.503000	1.674412
2.504000	1.643491
2.505000	1.532368
2.506000	1.469238
2.507000	1.476324
2.508000	1.543319
2.509000	1.490174
2.510000	1.451200
2.511000	1.506601
2.512000	1.629641
2.513000	1.673768
2.514000	1.835137
2.515000	1.911796
2.516000	1.822898
2.517000	1.593244
2.518000	1.363591
2.519000	1.300138
2.520000	1.203188
2.521000	1.200289
2.522000	1.246670
2.523000	1.394190
2.524000	1.640914
2.525000	1.885062
2.526000	2.015188
2.527000	1.967196
2.528000	1.779415
2.529000	1.577139
2.530000	1.431553
2.531000	1.392257
2.532000	1.504024
2.533000	1.667326
2.534000	1.843834
2.535000	1.893114
2.536000	1.747849
2.537000	1.489852
2.538000	1.268573
2.539000	1.153585
2.540000	1.107848
2.541000	1.175488
2.542000	1.298206
2.543000	1.371965
2.544000	1.436062
2.545000	1.569731
2.546000	1.917593
2.547000	2.316347
2.548000	2.413942
2.549000	2.404279
2.550000	2.311193
2.551000	1.969451
2.552000	1.558458
2.553000	1.254401
2.554000	1.035699
2.555000	1.007354
2.556000	1.088844
2.557000	1.276625
2.558000	1.536233
2.559000	1.628030
2.560000	1.685685
2.561000	1.729168
2.562000	1.671835
2.563000	1.585836
2.564000	1.533979
2.565000	1.535267
2.566000	1.508211
2.567000	1.406751
2.568000	1.263741
2.569000	1.150042
2.570000	1.032156
2.571000	1.002201
2.572000	1.184506
2.573000	1.555237
2.574000	1.984589
2.575000	2.296055
2.576000	2.380766
2.577000	2.303141
2.578000	2.077674
2.579000	1.814201
2.580000	1.732389
2.581000	1.589701
2.582000	1.417380
2.583000	1.323329
2.584000	1.354250
2.585000	1.540743
2.586000	1.628674
2.587000	1.567154
2.588000	1.512076
2.589000	1.440571
2.590000	1.470204
2.591000	1.532046
2.592000	1.513365
2.593000	1.474713
2.594000	1.511432
2.595000	1.457964
2.596000	1.425111
2.597000	1.624165
2.598000	1.829017
2.599000	1.925646
2.600000	1.844478
2.601000	1.752037
2.602000	1.669580
2.603000	1.576173
2.604000	1.495327
2.605000	1.526893
2.606000	1.522705
2.607000	1.435096
2.608000	1.384849
2.609000	1.405785
2.610000	1.563933
2.611000	1.746883
2.612000	1.825152
2.613000	1.781669
2.614000	1.639948
2.615000	1.547507
2.616000	1.394190
2.617000	1.288865
2.618000	1.249891
2.619000	1.279846
2.620000	1.379373
2.621000	1.517230
2.622000	1.598075
2.623000	1.586158
2.624000	1.549117
2.625000	1.546540
2.626000	1.547829
2.627000	1.496938
2.628000	1.475357
2.629000	1.493717
2.630000	1.575207
2.631000	1.650577
2.632000	1.663783
2.633000	1.690517
2.634000	1.693415
2.635000	1.636083
2.636000	1.646712
2.637000	1.723370
2.638000	1.610315
2.639000	1.449912
2.640000	1.416414
2.641000	1.482444
2.642000	1.558780
2.643000	1.701790
2.644000	1.991675
2.645000	2.209089
2.646000	2.275441
2.647000	2.315381
2.648000	2.338571
2.649000	2.320212
2.650000	2.220685
2.651000	1.896979
2.652000	1.654442
2.653000	1.390969
2.654000	1.187083
2.655000	1.064043
2.656000	1.229922
2.657000	1.544286
2.658000	1.943683
2.659000	1.942395
2.660000	1.790044
2.661000	1.715962
2.662000	1.700179
2.663000	1.534301
2.664000	1.446047
2.665000	1.387104
2.666000	1.387748
2.667000	1.425433
2.668000	1.332025
2.669000	1.328482
2.670000	1.423822
2.671000	1.594210
2.672000	1.742374
2.673000	1.789400
2.674000	1.779093
2.675000	1.766853
2.676000	1.856073
2.677000	1.749460
2.678000	1.864448
2.679000	2.036446
2.680000	1.864770
2.681000	1.748494
2.682000	1.516908
2.683000	1.291119
2.684000	1.119765
2.685000	1.042785
2.686000	1.052770
2.687000	1.193525
2.688000	1.452489
2.689000	1.671513
2.690000	1.828695
2.691000	1.764276
2.692000	1.632540
2.693000	1.557814
2.694000	1.512720
2.695000	1.487275
2.696000	1.224446
2.697000	1.102694
2.698000	1.072739
2.699000	1.080470
2.700000	1.214461
2.701000	1.411905
2.702000	1.686651
2.703000	1.916305
2.704000	1.972672
2.705000	1.989420
2.706000	1.909863
2.707000	1.845766
2.708000	1.858972
2.709000	1.701146
2.710000	1.403530
2.711000	1.320108
2.712000	1.481155
2.713000	1.633828
2.714000	1.532046
2.715000	1.437350
2.716000	1.399343
2.717000	1.379051
2.718000	1.304003
2.719000	1.216716
2.720000	1.363269
2.721000	1.487597
2.722000	1.615791
2.723000	1.609671
2.724000	1.572630
2.725000	1.693738
2.726000	2.048686
2.727000	2.298310
2.728000	2.332774
2.729000	2.130820
2.730000	1.998439
2.731000	1.771040
2.732000	1.480833
2.733000	1.319464
2.734000	1.278236
2.735000	1.299494
2.736000	1.271472
2.737000	1.182574
2.738000	1.173233
2.739000	1.257622
2.740000	1.446691
2.741000	1.788755
2.742000	2.018409
2.743000	2.116004
2.744000	2.038379
2.745000	1.795197
2.746000	1.608705
2.747000	1.682464
2.748000	1.864770
2.749000	2.065113
2.750000	2.174625
2.751000	1.990065
2.752000	1.638337
2.753000	1.450556
2.754000	1.246670
2.755000	1.205120
2.756000	1.292408
2.757000	1.292408
2.758000	1.368422
2.759000	1.441215
2.760000	1.363269
2.761000	1.344265
2.762000	1.467627
2.763000	1.424467
2.764000	1.356505
2.765000	1.371321
2.766000	1.470204
2.767000	1.658629
2.768000	1.804216
2.769000	1.871212
2.770000	1.907608
2.771000	1.895047
2.772000	1.849953
2.773000	1.787145
2.774000	1.605162
2.775000	1.454421
2.776000	1.566510
2.777000	1.683431
2.778000	1.647356
2.779000	1.700502
2.780000	1.638337
2.781000	1.523994
2.782000	1.492106
2.783000	1.487597
2.784000	1.443470
2.785000	1.426399
2.786000	1.306258
2.787000	1.116222
2.788000	1.006710
2.789000	0.982875
2.790000	1.107204
2.791000	1.401598
2.792000	1.793265
2.793000	2.154333
2.794000	2.325688
2.795000	2.378189
2.796000	2.396871
2.797000	2.431657
2.798000	2.441320
2.799000	2.360474
2.800000	2.228415
2.801000	1.810658
2.802000	1.321396
2.803000	0.994471
2.804000	0.879483
2.805000	0.858225
2.806000	0.942613
2.807000	1.170656
2.808000	1.508211
2.809000	1.731423
2.810000	1.757834
2.811000	1.667970
2.812000	1.677633
2.813000	1.748172
2.814000	1.705333
2.815000	1.581971
2.816000	1.452489
2.817000	1.416414
2.818000	1.349741
2.819000	1.305936
2.820000	1.251502
2.821000	1.495649
2.822000	1.768786
2.823000	1.861549
2.824000	1.767175
2.825000	1.506923
2.826000	1.293052
2.827000	1.193525
2.828000	1.173555
2.829000	1.337501
2.830000	1.714352
2.831000	2.056738
2.832000	2.252894
2.833000	2.216175
2.834000	1.944649
2.835000	1.561357
2.836000	1.265674
2.837000	1.233787
2.838000	1.452489
2.839000	1.744629
2.840000	2.183966
2.841000	2.386564
2.842000	2.419417
2.843000	2.396226
2.844000	2.192340
2.845000	1.609349
2.846000	1.222835
2.847000	1.025714
2.848000	0.922966
2.849000	0.870786
2.850000	0.920067
2.851000	1.014763
2.852000	1.183862
2.853000	1.442504
2.854000	1.515619
2.855000	1.647678
2.856000	1.781669
2.857000	2.022274
2.858000	2.138228
2.859000	2.087982
2.860000	1.985877
2.861000	1.766209
2.862000	1.497904
2.863000	1.236363
2.864000	1.053092
2.865000	1.137480
2.866000	1.193203
2.867000	1.301426
2.868000	1.365523
2.869000	1.558780
2.870000	1.710486
2.871000	1.713385
2.872000	1.638337
2.873000	1.597753
2.874000	1.568443
2.875000	1.544286
2.876000	1.482766
2.877000	1.440249
2.878000	1.448946
2.879000	1.485987
2.880000	1.539132
2.881000	1.620944
2.882000	1.697281
2.883000	1.680532
2.884000	1.621910
2.885000	1.796164
2.886000	1.954956
2.887000	1.980724
2.888000	1.939174
2.889000	1.945294
2.890000	1.986200
2.891000	1.905032
2.892000	1.726913
2.893000	1.592278
2.894000	1.499837
2.895000	1.390002
2.896000	1.307224
2.897000	1.205120
2.898000	1.253757
2.899000	1.385493
2.900000	1.473747
2.901000	1.532046
2.902000	1.626420
2.903000	1.635116
2.904000	1.564578
2.905000	1.499192
2.906000	1.579716
2.907000	1.810658
2.908000	2.057060
2.909000	2.040634
2.910000	2.000050
2.911000	1.858972
2.912000	1.701146
2.913000	1.649933
2.914000	1.648322
2.915000	1.538166
2.916000	1.544930
2.917000	1.733033
2.918000	1.873144
2.919000	1.803572
2.920000	1.596787
2.921000	1.487597
2.922000	1.402564
2.923000	1.133615
2.924000	1.095930
2.925000	1.080792
2.926000	1.120087
2.927000	1.213495
2.928000	1.533657
2.929000	1.870568
2.930000	2.282527
2.931000	2.419095
2.932000	2.309261
2.933000	1.904387
2.934000	1.654442
2.935000	1.414804
2.936000	1.040208
2.937000	0.898164
2.938000	0.886569
2.939000	0.914269
2.940000	0.991572
2.941000	1.102050
2.942000	1.221547
2.943000	1.285966
2.944000	1.350707
2.945000	1.587768
2.946000	2.078641
2.947000	2.399125
2.948000	2.479649
2.949000	2.469020
2.950000	2.381732
2.951000	1.943039
2.952000	1.363913
2.953000	0.918456
2.954000	0.777701
2.955000	0.839865
2.956000	1.000912
2.957000	1.223480
2.958000	1.420601
2.959000	1.557169
2.960000	1.598398
2.961000	1.427365
2.962000	1.434774
2.963000	1.506601
2.964000	1.753003
2.965000	2.063502
2.966000	2.278018
2.967000	2.294444
2.968000	2.115682
2.969000	1.845122
2.970000	1.564900
2.971000	1.572952
2.972000	1.899234
2.973000	2.256115
2.974000	2.301853
2.975000	2.029038
2.976000	1.786823
2.977000	1.547185
2.978000	1.133293
2.979000	0.985774
2.980000	1.008965
2.981000	1.153263
2.982000	1.458609
2.983000	1.904065
2.984000	2.163352
2.985000	2.224550
2.986000	2.103442
2.987000	1.766209
2.988000	1.562323
2.989000	1.447013
2.990000	1.394834
2.991000	1.308190
2.992000	1.233142
2.993000	1.306902
2.994000	1.390647
2.995000	1.407073
2.996000	1.531080
2.997000	1.810658
2.998000	1.958177
2.999000	2.121479
3.000000	2.187509
3.001000	1.973638
3.002000	1.582937
3.003000	1.393223
3.004000	1.397411
3.005000	1.235397
3.006000	0.957430
3.007000	0.879483
3.008000	0.990928
3.009000	1.141023
3.010000	1.452811
3.011000	1.601941
3.012000	1.523027
3.013000	1.571664
3.014000	1.594532
3.015000	1.573918
3.016000	1.575207
3.017000	1.632540
3.018000	1.766853
3.019000	1.909863
3.020000	2.005847
3.021000	2.031293
3.022000	1.861227
3.023000	1.762344
3.024000	1.551694
3.025000	1.367134
3.026000	1.389036
3.027000	1.738831
3.028000	2.096678
3.029000	2.199426
3.030000	1.958821
3.031000	1.649933
3.032000	1.759123
3.033000	1.994252
3.034000	1.924035
3.035000	1.821609
3.036000	1.669903
3.037000	1.467305
3.038000	1.366167
3.039000	1.231532
3.040000	0.942291
3.041000	0.956463
3.042000	1.000912
3.043000	1.239584
3.044000	1.668614
3.045000	1.937563
3.046000	2.228093
3.047000	2.334384
3.048000	2.179779
3.049000	1.928222
3.050000	1.588735
3.051000	1.216716
3.052000	1.017661
3.053000	0.950022
3.054000	0.972246
3.055000	1.090133
3.056000	1.487919
3.057000	1.988454
3.058000	2.164962
3.059000	2.171404
3.060000	2.064791
3.061000	1.822575
3.062000	1.521739
3.063000	1.387426
3.064000	1.427043
3.065000	1.409006
3.066000	1.352317
3.067000	1.359081
3.068000	1.464084
3.069000	1.712097
3.070000	2.055772
3.071000	2.145959
3.072000	2.131142
3.073000	2.012933
3.074000	2.062214
3.075000	2.268033
3.076000	2.392683
3.077000	2.442286
3.078000	2.354354
3.079000	1.884418
3.080000	1.334280
3.081000	1.000268
3.082000	0.854037
3.083000	0.778990
3.084000	0.769971
3.085000	0.766428
3.086000	0.834068
3.087000	0.902996
3.088000	0.936494
3.089000	0.898486
3.090000	0.920389
3.091000	1.011542
3.092000	1.109458
3.093000	1.418991
3.094000	1.913406
3.095000	2.161097
3.096000	2.328586
3.097000	2.392039
3.098000	2.412009
3.099000	2.385597
3.100000	2.315703
3.101000	2.125989
3.102000	1.846088
3.103000	1.590667
3.104000	1.482444
3.105000	1.439283
3.106000	1.315921
3.107000	1.228311
3.108000	1.168402
3.109000	1.355860
3.110000	1.510788
3.111000	1.705655
3.112000	1.794231
3.113000	1.805827
3.114000	1.753003
3.115000	1.788433
3.116000	1.763310
3.117000	1.789400
3.118000	1.819032
3.119000	1.675056
3.120000	1.364557
3.121000	1.084335
3.122000	0.953243
3.123000	0.912014
3.124000	1.121054
3.125000	1.724981
3.126000	2.402990
3.127000	2.495754
3.128000	2.493499
3.129000	2.480615
3.130000	2.422960
3.131000	1.982979
3.132000	1.135548
3.133000	0.788008
3.134000	0.669800
3.135000	0.687515
3.136000	0.731320
3.137000	0.948733
3.138000	1.326872
3.139000	1.617401
3.140000	1.665071
3.141000	1.608060
3.142000	1.449268
3.143000	1.330737
3.144000	1.300460
3.145000	1.318175
3.146000	1.295307
3.147000	1.296917
3.148000	1.409006
3.149000	1.637049
3.150000	1.937885
3.151000	2.160775
3.152000	2.280916
3.153000	2.383665
3.154000	2.284137
3.155000	2.027428
3.156000	1.763954
3.157000	1.442182
3.158000	1.141668
3.159000	1.072095
3.160000	1.114612
3.161000	1.126207
3.162000	1.187727
3.163000	1.309157
3.164000	1.431875
3.165000	1.599686
3.166000	1.918560
3.167000	2.155299
3.168000	2.166895
3.169000	2.048364
3.170000	1.737542
3.171000	1.359081
3.172000	1.158739
3.173000	1.210596
3.174000	1.513043
3.175000	2.077030
3.176000	2.432301
3.177000	2.470308
3.178000	2.328586
3.179000	1.636083
3.180000	1.149398
3.181000	0.902674
3.182000	0.803147
3.183000	0.819251
3.184000	0.997047
3.185000	1.298528
3.186000	1.696636
3.187000	1.889249
3.188000	1.890860
3.189000	1.732067
3.190000	1.595499
3.191000	1.411261
3.192000	1.335891
3.193000	1.373254
3.194000	1.543319
3.195000	1.930799
3.196000	2.290579
3.197000	2.399769
3.198000	2.376901
3.199000	2.158842
3.200000	1.804860
3.201000	1.501447
3.202000	1.188693
3.203000	0.999946
3.204000	0.929408
3.205000	0.853071
3.206000	0.887535
3.207000	0.983197
3.208000	1.099473
3.209000	1.407718
3.210000	1.931766
3.211000	2.267388
3.212000	2.350489
3.213000	2.350489
3.214000	2.389140
3.215000	2.408466
3.216000	2.371103
3.217000	2.300242
3.218000	2.081862
3.219000	1.751393
3.220000	1.455388
3.221000	1.153585
3.222000	0.970636
3.223000	0.883992
3.224000	0.948089
3.225000	1.032156
3.226000	1.112035
3.227000	1.156162
3.228000	1.295307
3.229000	1.463118
3.230000	1.717573
3.231000	2.008424
3.232000	2.231958
3.233000	2.171082
3.234000	1.926934
3.235000	1.735610
3.236000	1.680532
3.237000	1.542997
3.238000	1.410294
3.239000	1.520773
3.240000	1.503702
3.241000	1.446047
3.242000	1.356827
3.243000	1.260198
3.244000	1.194813
3.245000	1.213495
3.246000	1.275981
3.247000	1.349419
3.248000	1.507889
3.249000	1.676667
3.250000	1.731745
3.251000	1.650255
3.252000	1.676989
3.253000	1.714352
3.254000	1.776838
3.255000	1.787467
3.256000	1.879586
3.257000	2.096678
3.258000	2.297665
3.259000	2.301853
3.260000	2.012933
3.261000	1.661528
3.262000	1.445725
3.263000	1.135870
3.264000	0.989961
3.265000	0.954209
3.266000	0.924576
3.267000	1.049549
3.268000	1.105593
3.269000	1.134260
3.270000	1.151975
3.271000	1.224768
3.272000	1.319786
3.273000	1.400954
3.274000	1.593566
3.275000	1.776838
3.276000	1.687618
3.277000	1.528503
3.278000	1.428654
3.279000	1.311089
3.280000	1.288543
3.281000	1.403530
3.282000	1.326872
3.283000	1.434129
3.284000	1.669258
3.285000	1.827729
3.286000	2.003271
3.287000	2.129532
3.288000	2.121157
3.289000	2.074776
3.290000	1.869279
3.291000	1.621910
3.292000	1.415126
3.293000	1.322041
3.294000	1.323007
3.295000	1.339756
3.296000	1.325261
3.297000	1.326550
3.298000	1.397733
3.299000	1.535911
3.300000	1.648322
3.301000	1.736576
3.302000	1.822898
3.303000	1.917271
3.304000	1.960754
3.305000	1.869601
3.306000	1.778126
3.307000	1.702756
3.308000	1.617079
3.309000	1.553949
3.310000	1.540098
3.311000	1.519484
3.312000	1.473747
3.313000	1.327838
3.314000	1.208985
3.315000	1.173555
3.316000	1.155518
3.317000	1.270505
3.318000	1.498870
3.319000	1.775228
3.320000	1.935309
3.321000	2.032259
3.322000	1.958499
3.323000	1.815167
3.324000	1.569731
3.325000	1.323651
3.326000	1.154874
3.327000	1.126851
3.328000	1.312056
3.329000	1.689228
3.330000	1.989743
3.331000	2.030327
3.332000	1.802283
3.333000	1.436384
3.334000	1.452489
3.335000	1.725303
3.336000	1.995218
3.337000	2.308617
3.338000	2.397515
3.339000	2.312804
3.340000	2.070910
3.341000	1.664105
3.342000	1.200933
3.343000	0.928119
3.344000	0.841154
3.345000	0.934883
3.346000	1.025070
3.347000	1.119121
3.348000	1.177098
3.349000	1.248603
3.350000	1.255045
3.351000	1.268251
3.352000	1.326550
3.353000	1.388070
3.354000	1.408040
3.355000	1.571664
3.356000	1.713063
3.357000	1.817100
3.358000	1.850920
3.359000	1.752359
3.360000	1.679565
3.361000	1.679565
3.362000	1.572952
3.363000	1.506601
3.364000	1.498548
3.365000	1.626420
3.366000	1.792299
3.367000	1.905998
3.368000	1.969773
3.369000	2.006814
3.370000	1.920814
3.371000	1.734966
3.372000	1.506601
3.373000	1.419313
3.374000	1.333958
3.375000	1.227345
3.376000	1.161960
3.377000	1.120732
3.378000	1.156162
3.379000	1.276303
3.380000	1.370355
3.381000	1.452811
3.382000	1.580038
3.383000	1.704045
3.384000	1.844800
3.385000	1.953990
3.386000	2.083150
3.387000	2.062536
3.388000	1.976215
3.389000	1.818388
3.390000	1.635761
3.391000	1.391291
3.392000	1.096897
3.393000	0.950022
3.394000	1.005100
3.395000	1.122020
3.396000	1.371643
3.397000	1.575207
3.398000	1.586480
3.399000	1.609349
3.400000	1.673768
3.401000	1.701790
3.402000	1.517874
3.403000	1.409328
3.404000	1.379051
3.405000	1.360048
3.406000	1.374220
3.407000	1.547829
3.408000	1.721438
3.409000	1.891826
3.410000	1.872500
3.411000	1.752681
3.412000	1.633828
3.413000	1.505956
3.414000	1.494683
3.415000	1.526571
3.416000	1.547185
3.417000	1.493395
3.418000	1.386137
3.419000	1.362624
3.420000	1.455388
3.421000	1.617079
3.422000	1.743984
3.423000	1.699857
3.424000	1.536555
3.425000	1.565222
3.426000	1.664105
3.427000	1.692449
3.428000	1.679565
3.429000	1.842867
3.430000	2.091847
3.431000	2.189119
3.432000	2.102476
3.433000	1.886028
3.434000	1.604839
3.435000	1.264708
3.436000	1.093031
3.437000	1.048905
3.438000	1.110747
3.439000	1.170978
3.440000	1.226056
3.441000	1.278880
3.442000	1.275337
3.443000	1.323329
3.444000	1.522705
3.445000	1.692771
3.446000	1.700179
3.447000	1.667648
3.448000	1.659273
3.449000	1.666360
3.450000	1.672479
3.451000	1.662494
3.452000	1.772973
3.453000	1.809692
3.454000	1.814845
3.455000	1.925324
3.456000	1.922747
3.457000	1.825152
3.458000	1.818388
3.459000	1.811624
3.460000	1.824830
3.461000	1.783924
3.462000	1.576173
3.463000	1.294018
3.464000	1.148110
3.465000	1.075960
3.466000	1.190304
3.467000	1.455388
3.468000	1.592278
3.469000	1.577784
3.470000	1.529469
3.471000	1.450234
3.472000	1.399343
3.473000	1.411905
3.474000	1.443792
3.475000	1.477934
3.476000	1.507245
3.477000	1.658951
3.478000	1.793265
3.479000	1.681820
3.480000	1.553304
3.481000	1.530758
3.482000	1.625776
3.483000	1.537200
3.484000	1.382594
3.485000	1.268251
3.486000	1.284678
3.487000	1.315599
3.488000	1.298528
3.489000	1.289509
3.490000	1.254723
3.491000	1.323973
3.492000	1.440249
3.493000	1.569409
3.494000	1.689872
3.495000	1.788755
3.496000	1.811302
3.497000	1.931443
3.498000	2.161097
3.499000	2.313126
3.500000	2.308939
3.501000	2.177202
3.502000	1.976859
3.503000	1.693093
3.504000	1.566188
3.505000	1.572952
3.506000	1.485987
3.507000	1.418025
3.508000	1.378407
3.509000	1.260520
3.510000	1.204798
3.511000	1.249569
3.512000	1.197068
3.513000	1.134904
3.514000	1.174199
3.515000	1.337823
3.516000	1.469882
3.517000	1.590667
3.518000	1.640592
3.519000	1.629641
3.520000	1.612248
3.521000	1.727235
3.522000	1.774261
3.523000	1.690517
3.524000	1.549117
3.525000	1.416092
3.526000	1.436062
3.527000	1.331381
3.528000	1.215749
3.529000	1.245382
3.530000	1.452489
3.531000	1.535911
3.532000	1.436706
3.533000	1.326872
3.534000	1.225412
3.535000	1.166791
3.536000	1.214139
3.537000	1.433485
3.538000	1.763632
3.539000	1.757512
3.540000	1.638337
3.541000	1.610315
3.542000	1.599364
3.543000	1.641558
3.544000	1.693738
3.545000	1.717250
3.546000	1.803250
3.547000	1.857040
3.548000	1.808403
3.549000	1.781992
3.550000	1.839969
3.551000	1.825796
3.552000	1.618045
3.553000	1.385815
3.554000	1.329449
3.555000	1.317209
3.556000	1.329127
3.557000	1.363269
3.558000	1.386137
3.559000	1.414804
3.560000	1.461830
3.561000	1.485020
3.562000	1.435418
3.563000	1.354894
3.564000	1.598398
3.565000	1.864448
3.566000	2.004237
3.567000	2.059637
3.568000	1.940462
3.569000	1.706621
3.570000	1.541065
3.571000	1.416736
3.572000	1.399665
3.573000	1.541387
3.574000	1.619656
3.575000	1.593244
3.576000	1.468916
3.577000	1.339112
3.578000	1.203188
3.579000	1.183540
3.580000	1.424144
3.581000	1.748494
3.582000	1.828695
3.583000	1.671513
3.584000	1.517552
3.585000	1.380662
3.586000	1.269539
3.587000	1.229922
3.588000	1.379051
3.589000	1.683108
3.590000	1.984589
3.591000	2.223583
3.592000	2.192340
3.593000	2.071877
3.594000	1.906964
3.595000	1.780703
3.596000	1.649933
3.597000	1.448946
3.598000	1.465695
3.599000	1.500159
3.600000	1.544930
3.601000	1.661850
3.602000	1.535267
3.603000	1.503058
3.604000	1.508533
3.605000	1.455388
3.606000	1.416092
3.607000	1.351351
3.608000	1.338789
3.609000	1.304003
3.610000	1.159705
3.611000	1.084335
3.612000	1.069519
3.613000	1.064365
3.614000	1.197390
3.615000	1.460541
3.616000	1.688906
3.617000	1.955278
3.618000	2.154655
3.619000	2.299276
3.620000	2.265134
3.621000	2.076064
3.622000	1.986200
3.623000	2.059315
3.624000	2.075742
3.625000	1.924035
3.626000	1.532690
3.627000	1.150042
3.628000	0.946156
3.629000	0.869820
3.630000	0.934883
3.631000	1.167113
3.632000	1.434774
3.633000	1.641558
3.634000	1.662494
3.635000	1.431231
3.636000	1.215427
3.637000	1.140379
3.638000	1.247315
3.639000	1.516263
3.640000	1.778448
3.641000	1.939174
3.642000	1.934342
3.643000	1.674734
3.644000	1.459253
3.645000	1.337179
3.646000	1.338467
3.647000	1.515941
3.648000	1.628030
3.649000	1.655086
3.650000	1.759767
3.651000	1.802928
3.652000	1.703723
3.653000	1.664427
3.654000	1.721438
3.655000	1.877976
3.656000	2.001982
3.657000	2.000372
3.658000	1.868635
3.659000	1.634150
3.660000	1.398377
3.661000	1.228955
3.662000	1.196746
3.663000	1.197712
3.664000	1.187727
3.665000	1.228311
3.666000	1.332992
3.667000	1.485342
3.668000	1.668292
3.669000	1.857362
3.670000	1.948192
3.671000	1.881519
3.672000	1.693415
3.673000	1.539776
3.674000	1.401598
3.675000	1.309157
3.676000	1.299172
3.677000	1.382272
3.678000	1.486309
3.679000	1.509822
3.680000	1.478901
3.681000	1.426399
3.682000	1.368100
3.683000	1.332992
3.684000	1.359081
3.685000	1.372931
3.686000	1.424144
3.687000	1.528181
3.688000	1.554593
3.689000	1.503380
3.690000	1.500159
3.691000	1.549439
3.692000	1.548795
3.693000	1.495327
3.694000	1.442826
3.695000	1.371643
3.696000	1.315921
3.697000	1.278880
3.698000	1.320752
3.699000	1.433807
3.700000	1.577139
3.701000	1.620622
3.702000	1.700824
3.703000	1.749460
3.704000	1.795842
3.705000	1.799707
3.706000	1.783924
3.707000	1.761377
3.708000	1.741730
3.709000	1.762344
3.710000	1.809370
3.711000	1.757512
3.712000	1.671513
3.713000	1.577461
3.714000	1.514975
3.715000	1.430908
3.716000	1.436706
3.717000	1.461507
3.718000	1.534623
3.719000	1.657985
3.720000	1.724337
3.721000	1.739475
3.722000	1.742696
3.723000	1.709842
3.724000	1.626742
3.725000	1.553626
3.726000	1.503058
3.727000	1.550406
3.728000	1.659918
3.729000	1.818066
3.730000	1.885384
3.731000	1.790044
3.732000	1.608383
3.733000	1.425111
3.734000	1.292408
3.735000	1.246348
3.736000	1.265996
3.737000	1.278880
3.738000	1.251502
3.739000	1.247637
3.740000	1.274693
3.741000	1.419957
3.742000	1.676989
3.743000	1.962365
3.744000	2.103764
3.745000	2.026783
3.746000	1.758479
3.747000	1.476324
3.748000	1.313344
3.749000	1.277914
3.750000	1.259554
3.751000	1.256333
3.752000	1.275337
3.753000	1.286610
3.754000	1.353284
3.755000	1.438317
3.756000	1.499192
3.757000	1.567477
3.758000	1.605162
3.759000	1.577461
3.760000	1.653798
3.761000	1.758156
3.762000	1.920814
3.763000	2.025817
3.764000	2.100221
3.765000	2.037413
3.766000	1.900522
3.767000	1.762988
3.768000	1.560713
3.769000	1.394512
3.770000	1.296273
3.771000	1.242161
3.772000	1.230244
3.773000	1.229599
3.774000	1.264708
3.775000	1.318175
3.776000	1.340400
3.777000	1.380984
3.778000	1.432519
3.779000	1.457642
3.780000	1.453133
3.781000	1.504346
3.782000	1.627064
3.783000	1.795197
3.784000	1.797130
3.785000	1.723692
3.786000	1.718217
3.787000	1.696314
3.788000	1.720471
3.789000	1.666037
3.790000	1.546540
3.791000	1.427365
3.792000	1.279524
3.793000	1.240873
3.794000	1.258910
3.795000	1.243449
3.796000	1.286610
3.797000	1.473103
3.798000	1.827729
3.799000	2.155621
3.800000	2.279628
3.801000	2.254827
3.802000	2.220040
3.803000	2.163352
3.804000	2.029682
3.805000	1.750104
3.806000	1.396766
3.807000	1.262775
3.808000	1.269217
3.809000	1.508855
3.810000	1.662172
3.811000	1.639304
3.812000	1.644135
3.813000	1.637371
3.814000	1.566188
3.815000	1.482121
3.816000	1.533334
3.817000	1.513365
3.818000	1.428654
3.819000	1.306580
3.820000	1.242805
3.821000	1.292086
3.822000	1.487597
3.823000	1.774905
3.824000	1.904387
3.825000	2.028394
3.826000	2.013900
3.827000	1.823220
3.828000	1.645423
3.829000	1.535267
3.830000	1.514331
3.831000	1.566510
3.832000	1.706621
3.833000	1.910185
3.834000	2.040956
3.835000	2.006169
3.836000	1.840613
3.837000	1.629963
3.838000	1.506923
3.839000	1.432841
3.840000	1.366812
3.841000	1.447335
3.842000	1.893758
3.843000	2.240332
3.844000	2.298310
3.845000	2.202325
3.846000	1.973316
3.847000	1.765243
3.848000	1.553626
3.849000	1.342332
3.850000	1.172911
3.851000	1.057601
3.852000	1.078859
3.853000	1.259232
3.854000	1.492106
3.855000	1.713385
3.856000	1.856395
3.857000	2.075098
3.858000	2.242909
3.859000	2.132431
3.860000	1.824186
3.861000	1.464406
3.862000	1.229922
3.863000	1.035377
3.864000	0.990928
3.865000	1.122664
3.866000	1.332670
3.867000	1.543642
3.868000	1.599042
3.869000	1.482444
3.870000	1.362947
3.871000	1.357149
3.872000	1.342332
3.873000	1.336535
3.874000	1.318175
3.875000	1.230244
3.876000	1.192559
3.877000	1.187727
3.878000	1.336857
3.879000	1.432841
3.880000	1.492751
3.881000	1.565222
3.882000	1.604517
3.883000	1.607738
3.884000	1.513043
3.885000	1.304003
3.886000	1.245704
3.887000	1.357471
3.888000	1.513687
3.889000	1.653154
3.890000	1.832560
3.891000	2.045143
3.892000	2.159164
3.893000	1.932732
3.894000	1.540098
3.895000	1.226056
3.896000	1.115900
3.897000	1.201899
3.898000	1.289509
3.899000	1.296917
3.900000	1.311734
3.901000	1.345876
3.902000	1.404175
3.903000	1.603551
3.904000	1.793587
3.905000	1.841579
3.906000	1.802283
3.907000	1.848021
3.908000	1.826763
3.909000	1.758479
3.910000	1.512720
3.911000	1.278880
3.912000	1.198356
3.913000	1.189338
3.914000	1.252468
3.915000	1.309479
3.916000	1.337823
3.917000	1.393868
3.918000	1.459575
3.919000	1.383883
3.920000	1.276625
3.921000	1.260198
3.922000	1.243127
3.923000	1.341044
3.924000	1.443470
3.925000	1.495972
3.926000	1.514331
3.927000	1.429298
3.928000	1.180963
3.929000	1.091421
3.930000	1.112035
3.931000	1.228311
3.932000	1.427365
3.933000	1.632540
3.934000	1.682464
3.935000	1.728846
3.936000	1.600008
3.937000	1.388070
3.938000	1.312056
3.939000	1.388392
3.940000	1.512720
3.941000	1.629641
3.942000	1.624487
3.943000	1.504990
3.944000	1.371321
3.945000	1.309801
3.946000	1.180319
3.947000	1.113001
3.948000	1.236041
3.949000	1.576495
3.950000	2.054806
3.951000	2.300886
3.952000	2.348556
3.953000	2.290579
3.954000	2.093779
3.955000	1.770396
3.956000	1.459253
3.957000	1.246348
3.958000	1.140379
3.959000	1.161960
3.960000	1.166791
3.961000	1.205442
3.962000	1.169690
3.963000	1.199323
3.964000	1.261809
3.965000	1.322685
3.966000	1.383883
3.967000	1.465050
3.968000	1.437672
3.969000	1.471492
3.970000	1.508533
3.971000	1.420279
3.972000	1.409972
3.973000	1.502736
3.974000	1.564256
3.975000	1.695992
3.976000	1.890860
3.977000	1.890537
3.978000	1.759123
3.979000	1.581649
3.980000	1.396766
3.981000	1.320430
3.982000	1.333636
3.983000	1.353284
3.984000	1.396122
3.985000	1.376474
3.986000	1.397733
3.987000	1.343299
3.988000	1.280490
3.989000	1.268573
3.990000	1.383561
3.991000	1.543319
3.992000	1.711131
3.993000	1.839324
3.994000	1.913728
3.995000	1.951091
3.996000	1.847699
3.997000	1.647678
3.998000	1.544930
3.999000	1.516908
4.000000	1.466339
4.001000	1.527859
4.002000	1.417380
4.003000	1.233787
4.004000	1.176454
4.005000	1.200933
4.006000	1.279202
4.007000	1.456998
4.008000	1.495005
4.009000	1.474391
4.010000	1.437350
4.011000	1.394512
4.012000	1.357149
4.013000	1.315921
4.014000	1.279524
4.015000	1.313022
4.016000	1.369711
4.017000	1.509822
4.018000	1.774583
4.019000	1.964941
4.020000	1.953346
4.021000	1.756224
4.022000	1.501769
4.023000	1.370677
4.024000	1.235075
4.025000	1.179675
4.026000	1.281457
4.027000	1.521417
4.028000	1.874433
4.029000	1.972672
4.030000	1.923391
4.031000	1.805182
4.032000	1.602907
4.033000	1.436062
4.034000	1.282101
4.035000	1.153263
4.036000	1.113968
4.037000	1.197712
4.038000	1.361014
4.039000	1.554915
4.040000	1.729490
4.041000	1.896979
4.042000	1.935953
4.043000	1.948514
4.044000	1.865092
4.045000	1.564256
4.046000	1.289509
4.047000	1.278236
4.048000	1.437995
4.049000	1.637371
4.050000	1.867024
4.051000	2.074776
4.052000	2.125022
4.053000	1.961720
4.054000	1.832238
4.055000	1.785535
4.056000	1.745273
4.057000	1.706299
4.058000	1.486953
4.059000	1.257944
4.060000	0.982553
4.061000	0.840187
4.062000	0.820218
4.063000	0.867243
4.064000	1.004456
4.065000	1.230566
4.066000	1.432197
4.067000	1.608705
4.068000	1.679888
4.069000	1.720471
4.070000	1.902455
4.071000	2.184932
4.072000	2.274797
4.073000	2.158520
4.074000	1.865414
4.075000	1.609027
4.076000	1.400632
4.077000	1.247959
4.078000	1.167113
4.079000	1.152619
4.080000	1.169690
4.081000	1.315921
4.082000	1.502091
4.083000	1.667004
4.084000	1.730778
4.085000	1.715962
4.086000	1.549117
4.087000	1.363269
4.088000	1.295629
4.089000	1.254723
4.090000	1.426721
4.091000	1.670225
4.092000	1.832560
4.093000	2.018409
4.094000	2.102798
4.095000	2.081862
4.096000	2.083150
4.097000	1.814201
4.098000	1.533657
4.099000	1.309801
4.100000	1.169690
4.101000	1.126529
4.102000	1.132005
4.103000	1.334924
4.104000	1.771362
4.105000	2.142416
4.106000	2.344369
4.107000	2.349201
4.108000	2.124378
4.109000	1.735610
4.110000	1.421568
4.111000	1.213817
4.112000	1.072739
4.113000	0.999302
4.114000	1.016051
4.115000	1.164858
4.116000	1.399987
4.117000	1.551372
4.118000	1.607416
4.119000	1.584548
4.120000	1.600974
4.121000	1.620622
4.122000	1.508855
4.123000	1.373898
4.124000	1.366812
4.125000	1.374542
4.126000	1.387748
4.127000	1.488885
4.128000	1.568765
4.129000	1.617723
4.130000	1.620300
4.131000	1.561357
4.132000	1.577784
4.133000	1.456998
4.134000	1.273404
4.135000	1.211240
4.136000	1.290475
4.137000	1.362947
4.138000	1.443470
4.139000	1.500803
4.140000	1.500803
4.141000	1.545574
4.142000	1.625131
4.143000	1.690195
4.144000	1.733033
4.145000	1.716928
4.146000	1.637693
4.147000	1.575207
4.148000	1.568443
4.149000	1.721438
4.150000	2.154977
4.151000	2.414908
4.152000	2.453559
4.153000	2.402668
4.154000	2.038701
4.155000	1.558780
4.156000	1.290475
4.157000	1.168724
4.158000	1.293052
4.159000	1.433485
4.160000	1.562323
4.161000	1.524316
4.162000	1.391613
4.163000	1.190948
4.164000	1.138125
4.165000	1.139735
4.166000	1.203510
4.167000	1.400954
4.168000	1.531080
4.169000	1.507889
4.170000	1.423500
4.171000	1.321396
4.172000	1.274693
4.173000	1.329771
4.174000	1.454099
4.175000	1.502091
4.176000	1.464406
4.177000	1.418347
4.178000	1.401276
4.179000	1.451200
4.180000	1.424789
4.181000	1.450878
4.182000	1.565222
4.183000	1.627386
4.184000	1.662494
4.185000	1.645745
4.186000	1.686651
4.187000	1.665393
4.188000	1.567799
4.189000	1.474069
4.190000	1.403208
4.191000	1.405785
4.192000	1.410294
4.193000	1.411583
4.194000	1.429942
4.195000	1.563933
4.196000	1.767497
4.197000	1.949159
4.198000	2.074131
4.199000	2.042888
4.200000	1.886028
4.201000	1.689872
4.202000	1.458609
4.203000	1.383883
4.204000	1.473747
4.205000	1.597109
4.206000	1.713385
4.207000	1.892792
4.208000	2.011323
4.209000	1.935953
4.210000	1.702434
4.211000	1.453777
4.212000	1.178386
4.213000	1.053092
4.214000	1.044395
4.215000	1.143600
4.216000	1.462474
4.217000	1.600652
4.218000	1.531724
4.219000	1.364235
4.220000	1.212206
4.221000	1.127173
4.222000	1.125563
4.223000	1.203832
4.224000	1.455388
4.225000	1.836426
4.226000	2.202325
4.227000	2.345657
4.228000	2.309905
4.229000	2.156266
4.230000	1.822898
4.231000	1.547829
4.232000	1.374864
4.233000	1.338145
4.234000	1.418025
4.235000	1.541065
4.236000	1.625454
4.237000	1.589057
4.238000	1.527215
4.239000	1.436062
4.240000	1.273726
4.241000	1.189338
4.242000	1.241839
4.243000	1.337501
4.244000	1.429620
4.245000	1.643813
4.246000	1.806793
4.247000	1.811624
4.248000	1.694060
4.249000	1.516908
4.250000	1.364235
4.251000	1.256655
4.252000	1.288221
4.253000	1.367456
4.254000	1.388714
4.255000	1.432519
4.256000	1.426399
4.257000	1.454099
4.258000	1.601296
4.259000	1.918560
4.260000	2.145636
4.261000	2.172692
4.262000	2.039345
4.263000	1.769752
4.264000	1.507245
4.265000	1.254723
4.266000	1.127173
4.267000	1.198356
4.268000	1.387748
4.269000	1.547829
4.270000	1.638015
4.271000	1.667970
4.272000	1.628997
4.273000	1.562967
4.274000	1.405141
4.275000	1.453777
4.276000	1.561035
4.277000	1.716928
4.278000	1.872500
4.279000	1.858006
4.280000	1.811302
4.281000	1.684075
4.282000	1.447335
4.283000	1.199967
4.284000	1.179353
4.285000	1.282101
4.286000	1.460541
4.287000	1.564578
4.288000	1.665715
4.289000	1.739153
4.290000	1.674734
4.291000	1.554593
4.292000	1.506279
4.293000	1.328805
4.294000	1.017017
4.295000	0.962905
4.296000	0.957108
4.297000	0.999946
4.298000	1.105271
4.299000	1.277914
4.300000	1.518840
4.301000	1.742374
4.302000	1.885384
4.303000	1.951735
4.304000	1.956245
4.305000	1.869279
4.306000	1.672157
4.307000	1.639948
4.308000	1.708232
4.309000	1.786501
4.310000	1.858972
4.311000	1.960432
4.312000	2.058993
4.313000	2.138550
4.314000	2.122446
4.315000	2.028072
4.316000	2.028394
4.317000	2.030971
4.318000	1.848021
4.319000	1.567477
4.320000	1.408684
4.321000	1.275981
4.322000	1.223158
4.323000	1.275015
4.324000	1.300782
4.325000	1.339756
4.326000	1.370999
4.327000	1.370999
4.328000	1.341044
4.329000	1.329449
4.330000	1.330093
4.331000	1.297239
4.332000	1.337501
4.333000	1.535911
4.334000	1.863804
4.335000	2.059637
4.336000	2.190408
4.337000	2.262235
4.338000	2.250317
4.339000	2.173659
4.340000	2.009068
4.341000	1.831594
4.342000	1.619012
4.343000	1.402886
4.344000	1.296917
4.345000	1.190304
4.346000	1.197068
4.347000	1.360048
4.348000	1.466017
4.349000	1.486631
4.350000	1.497260
4.351000	1.492751
4.352000	1.385493
4.353000	1.295307
4.354000	1.281457
4.355000	1.333958
4.356000	1.347164
4.357000	1.389036
4.358000	1.367134
4.359000	1.430908
4.360000	1.800673
4.361000	2.186220
4.362000	2.354032
4.363000	2.343403
4.364000	2.095068
4.365000	1.876687
4.366000	1.613214
4.367000	1.406107
4.368000	1.218648
4.369000	1.238618
4.370000	1.463118
4.371000	1.531724
4.372000	1.498870
4.373000	1.494039
4.374000	1.444759
4.375000	1.414482
4.376000	1.532368
4.377000	1.653798
4.378000	1.704689
4.379000	1.772007
4.380000	1.897623
4.381000	1.938852
4.382000	2.031615
4.383000	2.062858
4.384000	1.983301
4.385000	2.084438
4.386000	2.233246
4.387000	2.350489
4.388000	2.377223
4.389000	2.146925
4.390000	1.801961
4.391000	1.497904
4.392000	1.275981
4.393000	1.185150
4.394000	1.162926
4.395000	1.119765
4.396000	1.245704
4.397000	1.345553
4.398000	1.397089
4.399000	1.414482
4.400000	1.402242
4.401000	1.395800
4.402000	1.443792
4.403000	1.678277
4.404000	1.914372
4.405000	2.001660
4.406000	1.978147
4.407000	1.897946
4.408000	1.800029
4.409000	1.662172
4.410000	1.500481
4.411000	1.337179
4.412000	1.231210
4.413000	1.351029
4.414000	1.538166
4.415000	1.696636
4.416000	1.794875
4.417000	1.770718
4.418000	1.614180
4.419000	1.454421
4.420000	1.286932
4.421000	1.165503
4.422000	1.125241
4.423000	1.177742
4.424000	1.347808
4.425000	1.551372
4.426000	1.753003
4.427000	1.944327
4.428000	1.999083
4.429000	2.046109
4.430000	2.055450
4.431000	2.036768
4.432000	1.982012
4.433000	1.854463
4.434000	1.774583
4.435000	1.873144
4.436000	1.881197
4.437000	1.899556
4.438000	1.829017
4.439000	1.671191
4.440000	1.489208
4.441000	1.429620
4.442000	1.396444
4.443000	1.345876
4.444000	1.380662
4.445000	1.348452
4.446000	1.298528
4.447000	1.265674
4.448000	1.318497
4.449000	1.435418
4.450000	1.599686
4.451000	1.678921
4.452000	1.656053
4.453000	1.432841
4.454000	1.197068
4.455000	1.169690
4.456000	1.307546
4.457000	1.477612
4.458000	1.487275
4.459000	1.630607
4.460000	1.739797
4.461000	1.759767
4.462000	1.663139
4.463000	1.471170
4.464000	1.380018
4.465000	1.386137
4.466000	1.347164
4.467000	1.293052
4.468000	1.243127
4.469000	1.143922
4.470000	1.096252
4.471000	1.174521
4.472000	1.323329
4.473000	1.491784
4.474000	1.676022
4.475000	1.719827
4.476000	1.690517
4.477000	1.645101
4.478000	1.673768
4.479000	1.700824
4.480000	1.888283
4.481000	1.976215
4.482000	1.963331
4.483000	1.950125
4.484000	1.944649
4.485000	1.812913
4.486000	1.662494
4.487000	1.452811
4.488000	1.262453
4.489000	1.172267
4.490000	1.177420
4.491000	1.180641
4.492000	1.242161
4.493000	1.224768
4.494000	1.125885
4.495000	1.114934
4.496000	1.239262
4.497000	1.398055
4.498000	1.613214
4.499000	1.830628
4.500000	1.889571
4.501000	1.746239
4.502000	1.486953
4.503000	1.211884
4.504000	1.036987
4.505000	0.969991
4.506000	1.052125
4.507000	1.315277
4.508000	1.558136
4.509000	1.587124
4.510000	1.304647
4.511000	1.269539
4.512000	1.482444
4.513000	1.693415
4.514000	1.730778
4.515000	1.675378
4.516000	1.651865
4.517000	1.709842
4.518000	1.695992
4.519000	1.572952
4.520000	1.515297
4.521000	1.531080
4.522000	1.380018
4.523000	1.185795
4.524000	1.064043
4.525000	1.127818
4.526000	1.250213
4.527000	1.467627
4.528000	1.590989
4.529000	1.627708
4.530000	1.725625
4.531000	1.643813
4.532000	1.363591
4.533000	1.101728
4.534000	0.978688
4.535000	1.020560
4.536000	1.175165
4.537000	1.376797
4.538000	1.626742
4.539000	1.812590
4.540000	1.918560
4.541000	1.839002
4.542000	1.640914
4.543000	1.546218
4.544000	1.346842
4.545000	1.209952
4.546000	1.265030
4.547000	1.511432
4.548000	1.775228
4.549000	1.806149
4.550000	1.741085
4.551000	1.628030
4.552000	1.521095
4.553000	1.474069
4.554000	1.305614
4.555000	1.270505
4.556000	1.284355
4.557000	1.218326
4.558000	1.151975
4.559000	1.209630
4.560000	1.453133
4.561000	1.702756
4.562000	1.805182
4.563000	1.791010
4.564000	1.534623
4.565000	1.286932
4.566000	1.115578
4.567000	0.952920
4.568000	0.972568
4.569000	1.222835
4.570000	1.397089
4.571000	1.492106
4.572000	1.529791
4.573000	1.572630
4.574000	1.725625
4.575000	1.872178
4.576000	1.921459
4.577000	2.000694
4.578000	2.135329
4.579000	2.255471
4.580000	2.197172
4.581000	1.941750
4.582000	1.589057
4.583000	1.318175
4.584000	1.205120
4.585000	1.155840
4.586000	1.137158
4.587000	1.220581
4.588000	1.314954
4.589000	1.389036
4.590000	1.449268
4.591000	1.606128
4.592000	1.692127
4.593000	1.564578
4.594000	1.363591
4.595000	1.310445
4.596000	1.350385
4.597000	1.451200
4.598000	1.590023
4.599000	1.648322
4.600000	1.562323
4.601000	1.424789
4.602000	1.361658
4.603000	1.339434
4.604000	1.393868
4.605000	1.372931
4.606000	1.427365
4.607000	1.488885
4.608000	1.435418
4.609000	1.359081
4.610000	1.326550
4.611000	1.310445
4.612000	1.405141
4.613000	1.386782
4.614000	1.353606
4.615000	1.386137
4.616000	1.419635
4.617000	1.485020
4.618000	1.562967
4.619000	1.613214
4.620000	1.557169
4.621000	1.452811
4.622000	1.369388
4.623000	1.323007
4.624000	1.360048
4.625000	1.376474
4.626000	1.318497
4.627000	1.329771
4.628000	1.388714
4.629000	1.491462
4.630000	1.614502
4.631000	1.773939
4.632000	1.866702
4.633000	1.885706
4.634000	1.714996
4.635000	1.493717
4.636000	1.333314
4.637000	1.305614
4.638000	1.296595
4.639000	1.333314
4.640000	1.377763
4.641000	1.521739
4.642000	1.866702
4.643000	2.197816
4.644000	2.370459
4.645000	2.361118
4.646000	2.295411
4.647000	2.012933
4.648000	1.577461
4.649000	1.192559
4.650000	1.007676
4.651000	0.928763
4.652000	0.980943
4.653000	1.059856
4.654000	1.132971
4.655000	1.323651
4.656000	1.691483
4.657000	1.938852
4.658000	2.029360
4.659000	1.890860
4.660000	1.583581
4.661000	1.323973
4.662000	1.202866
4.663000	1.144567
4.664000	1.264386
4.665000	1.450556
4.666000	1.655408
4.667000	1.690195
4.668000	1.601296
4.669000	1.476646
4.670000	1.319464
4.671000	1.242805
4.672000	1.232498
4.673000	1.303681
4.674000	1.426721
4.675000	1.509177
4.676000	1.476968
4.677000	1.467305
4.678000	1.476324
4.679000	1.514331
4.680000	1.597431
4.681000	1.727235
4.682000	1.827085
4.683000	1.831916
4.684000	1.713707
4.685000	1.566832
4.686000	1.515619
4.687000	1.543964
4.688000	1.514653
4.689000	1.517552
4.690000	1.569087
4.691000	1.626098
4.692000	1.648000
4.693000	1.675700
4.694000	1.725303
4.695000	1.645745
4.696000	1.571020
4.697000	1.485987
4.698000	1.394190
4.699000	1.275337
4.700000	1.272116
4.701000	1.217038
4.702000	1.183540
4.703000	1.179353
4.704000	1.190304
4.705000	1.279524
4.706000	1.425755
4.707000	1.638015
4.708000	1.828373
4.709000	1.888605
4.710000	1.819032
4.711000	1.710164
4.712000	1.576173
4.713000	1.593566
4.714000	1.770074
4.715000	1.905032
4.716000	1.952380
4.717000	1.904710
4.718000	1.800029
4.719000	1.781025
4.720000	1.675378
4.721000	1.539132
4.722000	1.487919
4.723000	1.506923
4.724000	1.424467
4.725000	1.259554
4.726000	1.154551
4.727000	1.143600
4.728000	1.153907
4.729000	1.173233
4.730000	1.249891
4.731000	1.356183
4.732000	1.433485
4.733000	1.490496
4.734000	1.513043
4.735000	1.448302
4.736000	1.425755
4.737000	1.459575
4.738000	1.428010
4.739000	1.443470
4.740000	1.535589
4.741000	1.547507
4.742000	1.482121
4.743000	1.379051
4.744000	1.263097
4.745000	1.228633
4.746000	1.196424
4.747000	1.243772
4.748000	1.305614
4.749000	1.410616
4.750000	1.547185
4.751000	1.619656
4.752000	1.530758
4.753000	1.510466
4.754000	1.548151
4.755000	1.642525
4.756000	1.692771
4.757000	1.726269
4.758000	1.690517
4.759000	1.635761
4.760000	1.524960
4.761000	1.420924
4.762000	1.265996
4.763000	1.170334
4.764000	1.145855
4.765000	1.137803
4.766000	1.189016
4.767000	1.393223
4.768000	1.723370
4.769000	2.064791
4.770000	2.313770
4.771000	2.381088
4.772000	2.358219
4.773000	2.111172
4.774000	1.710486
4.775000	1.411905
4.776000	1.196424
4.777000	1.117189
4.778000	1.135226
4.779000	1.210274
4.780000	1.338789
4.781000	1.498870
4.782000	1.647356
4.783000	1.756224
4.784000	1.836426
4.785000	1.853174
4.786000	1.794553
4.787000	1.745273
4.788000	1.611603
4.789000	1.494039
4.790000	1.458286
4.791000	1.562645
4.792000	1.772329
4.793000	1.832882
4.794000	1.716928
4.795000	1.596143
4.796000	1.481799
4.797000	1.389358
4.798000	1.437028
4.799000	1.489852
4.800000	1.626420
4.801000	1.667648
4.802000	1.657341
4.803000	1.636083
4.804000	1.592600
4.805000	1.533979
4.806000	1.470526
4.807000	1.462474
4.808000	1.500159
4.809000	1.499515
4.810000	1.576495
4.811000	1.463762
4.812000	1.379051
4.813000	1.408040
4.814000	1.416092
4.815000	1.482121
4.816000	1.595821
4.817000	1.707266
4.818000	1.817422
4.819000	1.786823
4.820000	1.604839
4.821000	1.386459
4.822000	1.302393
4.823000	1.272438
4.824000	1.282423
4.825000	1.403208
4.826000	1.497904
4.827000	1.575529
4.828000	1.490496
4.829000	1.342977
4.830000	1.169046
4.831000	1.190304
4.832000	1.132005
4.833000	1.065653
4.834000	1.020238
4.835000	1.054702
4.836000	1.175488
4.837000	1.342332
4.838000	1.575529
4.839000	1.769108
4.840000	1.910829
4.841000	1.863804
4.842000	1.751393
4.843000	1.797774
4.844000	1.888283
4.845000	1.938852
4.846000	2.169149
4.847000	2.371425
4.848000	2.444863
4.849000	2.434556
4.850000	2.351133
4.851000	2.052873
4.852000	1.726269
4.853000	1.484376
4.854000	1.382272
4.855000	1.239584
4.856000	1.195135
4.857000	1.224446
4.858000	1.235075
4.859000	1.175488
4.860000	1.185150
4.861000	1.214139
4.862000	1.245382
4.863000	1.399021
4.864000	1.502736
4.865000	1.488885
4.866000	1.433807
4.867000	1.418991
4.868000	1.292086
4.869000	1.120732
4.870000	1.038597
4.871000	1.083691
4.872000	1.254079
4.873000	1.477612
4.874000	1.617079
4.875000	1.598398
4.876000	1.528181
4.877000	1.566510
4.878000	1.580038
4.879000	1.539132
4.880000	1.529147
4.881000	1.481477
4.882000	1.455066
4.883000	1.438961
4.884000	1.422856
4.885000	1.436062
4.886000	1.557169
4.887000	1.727235
4.888000	1.731745
4.889000	1.839969
4.890000	1.763310
4.891000	1.688584
4.892000	1.579716
4.893000	1.455710
4.894000	1.432197
4.895000	1.448624
4.896000	1.404175
4.897000	1.367134
4.898000	1.382272
4.899000	1.418347
4.900000	1.446369
4.901000	1.530436
4.902000	1.612892
4.903000	1.727880
4.904000	1.905354
4.905000	1.905998
4.906000	1.781669
4.907000	1.689872
4.908000	1.523994
4.909000	1.474391
4.910000	1.507889
4.911000	1.606450
4.912000	1.641558
4.913000	1.592600
4.914000	1.523994
4.915000	1.346842
4.916000	1.207697
4.917000	1.211562
4.918000	1.323651
4.919000	1.488563
4.920000	1.669580
4.921000	1.764276
4.922000	1.679565
4.923000	1.620944
4.924000	1.540421
4.925000	1.494039
4.926000	1.499837
4.927000	1.549117
4.928000	1.633828
4.929000	1.600974
4.930000	1.519484
4.931000	1.411905
4.932000	1.363913
4.933000	1.397733
4.934000	1.443148
4.935000	1.513365
4.936000	1.612248
4.937000	1.744951
4.938000	1.918560
4.939000	2.004559
4.940000	2.077352
4.941000	2.100865
4.942000	1.971705
4.943000	1.717895
4.944000	1.402564
4.945000	1.135226
4.946000	1.048905
4.947000	0.885603
4.948000	0.818607
4.949000	0.898809
4.950000	1.048905
4.951000	1.276303
4.952000	1.436384
4.953000	1.437672
4.954000	1.384527
4.955000	1.408684
4.956000	1.473747
4.957000	1.446691
4.958000	1.453455
4.959000	1.461830
4.960000	1.498226
4.961000	1.609671
4.962000	1.613214
4.963000	1.684075
4.964000	1.817100
4.965000	1.973960
4.966000	2.105053
4.967000	2.182355
4.968000	2.125667
4.969000	2.037735
4.970000	1.924679
4.971000	1.861871
4.972000	1.783924
4.973000	1.662816
4.974000	1.567477
4.975000	1.470848
4.976000	1.381950
4.977000	1.386782
4.978000	1.374864
4.979000	1.342655
4.980000	1.363913
4.981000	1.392901
4.982000	1.316243
4.983000	1.240873
4.984000	1.209630
4.985000	1.209952
4.986000	1.198356
4.987000	1.366490
4.988000	1.635438
4.989000	1.811302
4.990000	1.899878
4.991000	1.910185
4.992000	1.840613
4.993000	1.729168
4.994000	1.726913
4.995000	1.845444
4.996000	2.012289
4.997000	2.228415
4.998000	2.263201
4.999000	2.088304
5.000000	1.840613
5.001000	1.572308
5.002000	1.372609
5.003000	1.148110
5.004000	1.116222
5.005000	1.210918
5.006000	1.250536
5.007000	1.209307
5.008000	1.091099
5.009000	1.005100
5.010000	0.907505
5.011000	0.858869
5.012000	0.880127
5.013000	0.976111
5.014000	1.205764
5.015000	1.461185
5.016000	1.857684
5.017000	2.129532
5.018000	2.152723
5.019000	1.928222
5.020000	1.835781
5.021000	1.830628
5.022000	1.861549
5.023000	1.916949
5.024000	1.855429
5.025000	1.671513
5.026000	1.418347
5.027000	1.219937
5.028000	1.155518
5.029000	1.185795
5.030000	1.211884
5.031000	1.283067
5.032000	1.495327
5.033000	1.900844
5.034000	2.308294
5.035000	2.426825
5.036000	2.402668
5.037000	2.238722
5.038000	1.882807
5.039000	1.459253
5.040000	1.235719
5.041000	1.362624
5.042000	1.352317
5.043000	1.341366
5.044000	1.244094
5.045000	1.119443
5.046000	1.082080
5.047000	1.199323
5.048000	1.422856
5.049000	1.596143
5.050000	1.743340
5.051000	1.658629
5.052000	1.556203
5.053000	1.541709
5.054000	1.544608
5.055000	1.643813
5.056000	1.683108
5.057000	1.599364
5.058000	1.467305
5.059000	1.257622
5.060000	1.272116
5.061000	1.403853
5.062000	1.522061
5.063000	1.628030
5.064000	1.683431
5.065000	1.600974
5.066000	1.544608
5.067000	1.462474
5.068000	1.517874
5.069000	1.557814
5.070000	1.595499
5.071000	1.572630
5.072000	1.413837
5.073000	1.251502
5.074000	1.308513
5.075000	1.538810
5.076000	1.819032
5.077000	1.902455
5.078000	1.766209
5.079000	1.595177
5.080000	1.372609
5.081000	1.105593
5.082000	1.026680
5.083000	1.092709
5.084000	1.253757
5.085000	1.401276
5.086000	1.526893
5.087000	1.481155
5.088000	1.549117
5.089000	1.717895
5.090000	1.913728
5.091000	2.114071
5.092000	2.062536
5.093000	1.948514
5.094000	1.883451
5.095000	1.836103
5.096000	1.516908
5.097000	1.341366
5.098000	1.293696
5.099000	1.362624
5.100000	1.500481
5.101000	1.697603
5.102000	1.745595
5.103000	1.762344
5.104000	1.905032
5.105000	1.948192
5.106000	1.822898
5.107000	1.695992
5.108000	1.444759
5.109000	1.275015
5.110000	1.216394
5.111000	1.095608
5.112000	1.046972
5.113000	1.112679
5.114000	1.406429
5.115000	1.525604
5.116000	1.486309
5.117000	1.364879
5.118000	1.285966
5.119000	1.527537
5.120000	1.760733
5.121000	1.767175
5.122000	1.684397
5.123000	1.771040
5.124000	1.716284
5.125000	1.638015
5.126000	1.620300
5.127000	1.580682
5.128000	1.565866
5.129000	1.565544
5.130000	1.563611
5.131000	1.482121
5.132000	1.337823
5.133000	1.296917
5.134000	1.263419
5.135000	1.246348
5.136000	1.362302
5.137000	1.820643
5.138000	2.349845
5.139000	2.478683
5.140000	2.495754
5.141000	2.474173
5.142000	2.349845
5.143000	1.953346
5.144000	1.258588
5.145000	0.885281
5.146000	0.801536
5.147000	0.804435
5.148000	0.852427
5.149000	0.945512
5.150000	1.098185
5.151000	1.285644
5.152000	1.437672
5.153000	1.588091
5.154000	1.671191
5.155000	1.686651
5.156000	1.669258
5.157000	1.663783
5.158000	1.612892
5.159000	1.546540
5.160000	1.490496
5.161000	1.514653
5.162000	1.576817
5.163000	1.620944
5.164000	1.574885
5.165000	1.526571
5.166000	1.464728
5.167000	1.560390
5.168000	1.701146
5.169000	1.979436
5.170000	2.196850
5.171000	2.226160
5.172000	2.121479
5.173000	1.937885
5.174000	1.680854
5.175000	1.331703
5.176000	1.040530
5.177000	0.909760
5.178000	0.830847
5.179000	0.911692
5.180000	1.111391
5.181000	1.390325
5.182000	1.749460
5.183000	1.822898
5.184000	1.720471
5.185000	1.523994
5.186000	1.320430
5.187000	1.183540
5.188000	1.127818
5.189000	1.224768
5.190000	1.446691
5.191000	1.633184
5.192000	1.776194
5.193000	2.000050
5.194000	2.301853
5.195000	2.383343
5.196000	2.391717
5.197000	2.398481
5.198000	2.344047
5.199000	2.206835
5.200000	2.017121
5.201000	1.565222
5.202000	1.209307
5.203000	1.071773
5.204000	0.911370
5.205000	0.896876
5.206000	0.941969
5.207000	1.038920
5.208000	1.189338
5.209000	1.307224
5.210000	1.505312
5.211000	1.600008
5.212000	1.597109
5.213000	1.695026
5.214000	1.754613
5.215000	1.808403
5.216000	1.850598
5.217000	1.646712
5.218000	1.419635
5.219000	1.296917
5.220000	1.209952
5.221000	1.224768
5.222000	1.380662
5.223000	1.898912
5.224000	2.367238
5.225000	2.428114
5.226000	2.271576
5.227000	1.780381
5.228000	1.332670
5.229000	1.035699
5.230000	0.881093
5.231000	0.853071
5.232000	1.088844
5.233000	1.546862
5.234000	1.773939
5.235000	1.752037
5.236000	1.606772
5.237000	1.420924
5.238000	1.282745
5.239000	1.167757
5.240000	1.207697
5.241000	1.412871
5.242000	1.538810
5.243000	1.723692
5.244000	1.986522
5.245000	2.227449
5.246000	2.330519
5.247000	2.186865
5.248000	1.972994
5.249000	1.872178
5.250000	1.746561
5.251000	1.430586
5.252000	1.170334
5.253000	1.113001
5.254000	1.180641
5.255000	1.364235
5.256000	1.581649
5.257000	1.816456
5.258000	1.975893
5.259000	2.009712
5.260000	1.890537
5.261000	1.622555
5.262000	1.374542
5.263000	1.112679
5.264000	1.124275
5.265000	1.308835
5.266000	1.485342
5.267000	1.593244
5.268000	1.598075
5.269000	1.591956
5.270000	1.506601
5.271000	1.423178
5.272000	1.371321
5.273000	1.394512
5.274000	1.476646
5.275000	1.676667
5.276000	1.659596
5.277000	1.608060
5.278000	1.542675
5.279000	1.455388
5.280000	1.397733
5.281000	1.284033
5.282000	1.277592
5.283000	1.427688
5.284000	1.562967
5.285000	1.589379
5.286000	1.617401
5.287000	1.719183
5.288000	1.571020
5.289000	1.302393
5.290000	1.175488
5.291000	1.202544
5.292000	1.309157
5.293000	1.470204
5.294000	1.698247
5.295000	1.903421
5.296000	2.209089
5.297000	2.386886
5.298000	2.417485
5.299000	2.393328
5.300000	2.326654
5.301000	2.190730
5.302000	2.016799
5.303000	1.986844
5.304000	2.126633
5.305000	2.055450
5.306000	1.759123
5.307000	1.453455
5.308000	1.126529
5.309000	0.954853
5.310000	0.863700
5.311000	0.889146
5.312000	1.110102
5.313000	1.443792
5.314000	1.674734
5.315000	1.782314
5.316000	1.802606
5.317000	1.757512
5.318000	1.686329
5.319000	1.700824
5.320000	1.813879
5.321000	1.914695
5.322000	1.921459
5.323000	1.840291
5.324000	1.672479
5.325000	1.282745
5.326000	1.126207
5.327000	1.064687
5.328000	1.084979
5.329000	1.146499
5.330000	1.146177
5.331000	1.138447
5.332000	1.193847
5.333000	1.346842
5.334000	1.476002
5.335000	1.508855
5.336000	1.718539
5.337000	1.972349
5.338000	2.167217
5.339000	2.265778
5.340000	2.132109
5.341000	1.931766
5.342000	1.599042
5.343000	1.232176
5.344000	1.011542
5.345000	0.846951
5.346000	0.730675
5.347000	0.747102
5.348000	0.829880
5.349000	1.025392
5.350000	1.333314
5.351000	1.595499
5.352000	1.698891
5.353000	1.847377
5.354000	1.900522
5.355000	1.891504
5.356000	1.846733
5.357000	1.798418
5.358000	1.801639
5.359000	1.840935
5.360000	1.845766
5.361000	1.886672
5.362000	2.130820
5.363000	2.090558
5.364000	1.791332
5.365000	1.601619
5.366000	1.394512
5.367000	1.173233
5.368000	1.100440
5.369000	1.178064
5.370000	1.382916
5.371000	1.637049
5.372000	1.740441
5.373000	1.541709
5.374000	1.593566
5.375000	1.759445
5.376000	2.010679
5.377000	2.200715
5.378000	2.190086
5.379000	2.011967
5.380000	1.792299
5.381000	1.667004
5.382000	1.824830
5.383000	2.251928
5.384000	2.350167
5.385000	2.286714
5.386000	2.178168
5.387000	1.925324
5.388000	1.610637
5.389000	1.187405
5.390000	0.862090
5.391000	0.754510
5.392000	0.821184
5.393000	0.996081
5.394000	1.217038
5.395000	1.293696
5.396000	1.345231
5.397000	1.394512
5.398000	1.355538
5.399000	1.206409
5.400000	1.126207
5.401000	1.245382
5.402000	1.518840
5.403000	2.002304
5.404000	2.338249
5.405000	2.394938
5.406000	2.399125
5.407000	2.388818
5.408000	2.250317
5.409000	1.986844
5.410000	1.774583
5.411000	1.490174
5.412000	1.296273
5.413000	1.404819
5.414000	1.603229
5.415000	1.925002
5.416000	2.122768
5.417000	2.175913
5.418000	2.036124
5.419000	1.794875
5.420000	1.377763
5.421000	0.994471
5.422000	0.831813
5.423000	0.780922
5.424000	0.841476
5.425000	0.913947
5.426000	0.991894
5.427000	1.146499
5.428000	1.274371
5.429000	1.317853
5.430000	1.455388
5.431000	1.522383
5.432000	1.581649
5.433000	1.706943
5.434000	1.632218
5.435000	1.481477
5.436000	1.759767
5.437000	2.228737
5.438000	2.383021
5.439000	2.282849
5.440000	1.987810
5.441000	1.779093
5.442000	1.571986
5.443000	1.380018
5.444000	1.046328
5.445000	0.959362
5.446000	0.993182
5.447000	1.098185
5.448000	1.390969
5.449000	1.732711
5.450000	1.899878
5.451000	1.929833
5.452000	1.733033
5.453000	1.454099
5.454000	1.392257
5.455000	1.309479
5.456000	1.413193
5.457000	1.444436
5.458000	1.531080
5.459000	1.609349
5.460000	1.458609
5.461000	1.552016
5.462000	1.769108
5.463000	2.007458
5.464000	1.996829
5.465000	1.720149
5.466000	1.619978
5.467000	1.553949
5.468000	1.411261
5.469000	1.310123
5.470000	1.521739
5.471000	2.002948
5.472000	2.332129
5.473000	2.383665
5.474000	2.239688
5.475000	1.836748
5.476000	1.373898
5.477000	1.039886
5.478000	0.772548
5.479000	0.672698
5.480000	0.768360
5.481000	0.916524
5.482000	1.023137
5.483000	1.107848
5.484000	1.356183
5.485000	1.830628
5.486000	1.971383
5.487000	1.658951
5.488000	1.437672
5.489000	1.308513
5.490000	1.294663
5.491000	1.309801
5.492000	1.279202
5.493000	1.275659
5.494000	1.350063
5.495000	1.479223
5.496000	1.702112
5.497000	1.840613
5.498000	1.916949
5.499000	1.924679
5.500000	1.750426
5.501000	1.510788
5.502000	1.524638
5.503000	2.007136
5.504000	2.402346
5.505000	2.491567
5.506000	2.459679
5.507000	2.081540
5.508000	1.536878
5.509000	1.235075
5.510000	1.062110
5.511000	1.017017
5.512000	1.050515
5.513000	1.138447
5.514000	1.284355
5.515000	1.441215
5.516000	1.513365
5.517000	1.614824
5.518000	1.616435
5.519000	1.799063
5.520000	2.093457
5.521000	2.173659
5.522000	2.254827
5.523000	2.179134
5.524000	1.789722
5.525000	1.454099
5.526000	1.145533
5.527000	0.883348
5.528000	0.865633
5.529000	1.003489
5.530000	1.127496
5.531000	1.297239
5.532000	1.529147
5.533000	1.705011
5.534000	1.833849
5.535000	1.946260
5.536000	1.844478
5.537000	1.549117
5.538000	1.293374
5.539000	1.216394
5.540000	1.426721
5.541000	1.948837
5.542000	2.317313
5.543000	2.397193
5.544000	2.214887
5.545000	1.500481
5.546000	0.972890
5.547000	0.777701
5.548000	0.729065
5.549000	0.837611
5.550000	1.232498
5.551000	1.819677
5.552000	2.263201
5.553000	2.393972
5.554000	2.343403
5.555000	2.002304
5.556000	1.712419
5.557000	1.686651
5.558000	1.609349
5.559000	1.603873
5.560000	1.716606
5.561000	1.733355
5.562000	1.618690
5.563000	1.455710
5.564000	1.250536
5.565000	1.193847
5.566000	1.199967
5.567000	1.275337
5.568000	1.395800
5.569000	1.604839
5.570000	1.790688
5.571000	1.961076
5.572000	1.997795
5.573000	1.841257
5.574000	1.699213
5.575000	1.514653
5.576000	1.246993
5.577000	1.086590
5.578000	0.992860
5.579000	1.046328
5.580000	1.242161
5.581000	1.450234
5.582000	1.582937
5.583000	1.650577
5.584000	1.567477
5.585000	1.393545
5.586000	1.194491
5.587000	1.108170
5.588000	1.206731
5.589000	1.340400
5.590000	1.582937
5.591000	1.814845
5.592000	1.885062
5.593000	1.838680
5.594000	1.845122
5.595000	1.946582
5.596000	2.064469
5.597000	2.360796
5.598000	2.443252
5.599000	2.419095
5.600000	2.261269
5.601000	1.781669
5.602000	1.505956
5.603000	1.275337
5.604000	1.185150
5.605000	1.326550
5.606000	1.489208
5.607000	1.470848
5.608000	1.243772
5.609000	1.131361
5.610000	1.127173
5.611000	1.153907
5.612000	1.337501
5.613000	1.565544
5.614000	1.697925
5.615000	1.786501
5.616000	1.841579
5.617000	1.832882
5.618000	1.713385
5.619000	1.659918
5.620000	1.730456
5.621000	1.784246
5.622000	1.758156
5.623000	1.596143
5.624000	1.370677
5.625000	1.198678
5.626000	1.131361
5.627000	1.030223
5.628000	0.977722
5.629000	1.084013
5.630000	1.161638
5.631000	1.199323
5.632000	1.358115
5.633000	1.582293
5.634000	1.828695
5.635000	2.144670
5.636000	2.276729
5.637000	2.213599
5.638000	2.101187
5.639000	2.024207
5.640000	2.037413
5.641000	2.073809
5.642000	1.670869
5.643000	1.220259
5.644000	1.145533
5.645000	1.113001
5.646000	1.068230
5.647000	1.082080
5.648000	1.137803
5.649000	1.207053
5.650000	1.346842
5.651000	1.460219
5.652000	1.505312
5.653000	1.475680
5.654000	1.498226
5.655000	1.498548
5.656000	1.450234
5.657000	1.451845
5.658000	1.418991
5.659000	1.410294
5.660000	1.524960
5.661000	1.736254
5.662000	1.815811
5.663000	1.810980
5.664000	1.762666
5.665000	1.794231
5.666000	1.792299
5.667000	1.702112
5.668000	1.482121
5.669000	1.251180
5.670000	1.115900
5.671000	1.024103
5.672000	1.030545
5.673000	1.167113
5.674000	1.531080
5.675000	2.004881
5.676000	2.284782
5.677000	2.232602
5.678000	2.027428
5.679000	1.788755
5.680000	1.730134
5.681000	1.752681
5.682000	1.838680
5.683000	1.819032
5.684000	1.666037
5.685000	1.460541
5.686000	1.238296
5.687000	1.024425
5.688000	0.969347
5.689000	1.024747
5.690000	1.230566
5.691000	1.595177
5.692000	2.079285
5.693000	2.317635
5.694000	2.371103
5.695000	2.330841
5.696000	2.264812
5.697000	2.211666
5.698000	2.080895
5.699000	2.051263
5.700000	1.888283
5.701000	1.641558
5.702000	1.455388
5.703000	1.454421
5.704000	1.527859
5.705000	1.686007
5.706000	1.743984
5.707000	1.636405
5.708000	1.451845
5.709000	1.291442
5.710000	1.146499
5.711000	1.000912
5.712000	1.178709
5.713000	1.615469
5.714000	1.922103
5.715000	2.024529
5.716000	2.061892
5.717000	2.030004
5.718000	1.836426
5.719000	1.705655
5.720000	1.711775
5.721000	1.476002
5.722000	1.217038
5.723000	0.910082
5.724000	0.750967
5.725000	0.757409
5.726000	0.835034
5.727000	1.100118
5.728000	1.476646
5.729000	1.851242
5.730000	1.967196
5.731000	1.824508
5.732000	1.523672
5.733000	1.372609
5.734000	1.587446
5.735000	1.884740
5.736000	2.178490
5.737000	2.393005
5.738000	2.461290
5.739000	2.420706
5.740000	2.071877
5.741000	1.490174
5.742000	1.145855
5.743000	0.998014
5.744000	0.883992
5.745000	0.828914
5.746000	0.896876
5.747000	1.079826
5.748000	1.584548
5.749000	2.135329
5.750000	2.386886
5.751000	2.429402
5.752000	2.373358
5.753000	2.049330
5.754000	1.824186
5.755000	1.592278
5.756000	1.281457
5.757000	1.083369
5.758000	1.051803
5.759000	1.042141
5.760000	1.072739
5.761000	1.134260
5.762000	1.170656
5.763000	1.251824
5.764000	1.528503
5.765000	1.770396
5.766000	1.861549
5.767000	1.884418
5.768000	2.187831
5.769000	2.368204
5.770000	2.379800
5.771000	2.149502
5.772000	1.771362
5.773000	1.495649
5.774000	1.319142
5.775000	1.544930
5.776000	1.612892
5.777000	1.676022
5.778000	1.643491
5.779000	1.356505
5.780000	1.195135
5.781000	1.570375
5.782000	2.064791
5.783000	2.304751
5.784000	2.259336
5.785000	1.914372
5.786000	1.405463
5.787000	1.064365
5.788000	0.819895
5.789000	0.710383
5.790000	0.746136
5.791000	0.954531
5.792000	1.081758
5.793000	1.146177
5.794000	1.313666
5.795000	1.765243
5.796000	2.242587
5.797000	2.435522
5.798000	2.477394
5.799000	2.460645
5.800000	2.362084
5.801000	1.808403
5.802000	1.315921
5.803000	1.133293
5.804000	1.024747
5.805000	0.979010
5.806000	1.020882
5.807000	1.198356
5.808000	1.594532
5.809000	2.228093
5.810000	2.395260
5.811000	2.322467
5.812000	2.073487
5.813000	1.808081
5.814000	1.463762
5.815000	1.015407
5.816000	0.830525
5.817000	0.897842
5.818000	1.033444
5.819000	1.228633
5.820000	1.465373
5.821000	1.449912
5.822000	1.541709
5.823000	1.724014
5.824000	1.877654
5.825000	1.805827
5.826000	1.597109
5.827000	1.631251
5.828000	2.061248
5.829000	2.308617
5.830000	2.416196
5.831000	2.399447
5.832000	2.376901
5.833000	2.335028
5.834000	2.226482
5.835000	1.854463
5.836000	1.404175
5.837000	1.258588
5.838000	1.167757
5.839000	1.036987
5.840000	0.994793
5.841000	1.344587
5.842000	1.910507
5.843000	2.272542
5.844000	2.259980
5.845000	1.945294
5.846000	1.517874
5.847000	1.388714
5.848000	1.146821
5.849000	1.012508
5.850000	1.164858
5.851000	1.432197
5.852000	1.371965
5.853000	1.120409
5.854000	0.877872
5.855000	0.777057
5.856000	0.784787
5.857000	0.806045
5.858000	0.828270
5.859000	0.957430
5.860000	1.107204
5.861000	1.219292
5.862000	1.397411
5.863000	1.637371
5.864000	1.855429
5.865000	2.007780
5.866000	1.973960
5.867000	1.975893
5.868000	2.085727
5.869000	2.030971
5.870000	2.221651
5.871000	2.386564
5.872000	2.460323
5.873000	2.432623
5.874000	2.236467
5.875000	1.956889
5.876000	1.895691
5.877000	1.769430
5.878000	1.618690
5.879000	1.592922
5.880000	1.445403
5.881000	1.248281
5.882000	1.190948
5.883000	1.086912
5.884000	0.929408
5.885000	0.916202
5.886000	0.947445
5.887000	0.999946
5.888000	1.152941
5.889000	1.573274
5.890000	2.107951
5.891000	2.333418
5.892000	2.419417
5.893000	2.422638
5.894000	2.347912
5.895000	2.154655
5.896000	1.869601
5.897000	1.929511
5.898000	1.946582
5.899000	1.817100
5.900000	1.457964
5.901000	1.105271
5.902000	0.857903
5.903000	0.702331
5.904000	0.662069
5.905000	0.695567
5.906000	0.917490
5.907000	1.151331
5.908000	1.281457
5.909000	1.350385
5.910000	1.363591
5.911000	1.360370
5.912000	1.344265
5.913000	1.263097
5.914000	1.200611
5.915000	1.207375
5.916000	1.282101
5.917000	1.420924
5.918000	1.514009
5.919000	1.634794
5.920000	1.987166
5.921000	2.364661
5.922000	2.449050
5.923000	2.447117
5.924000	2.412653
5.925000	2.339860
5.926000	2.033870
5.927000	1.418347
5.928000	1.130394
5.929000	1.095930
5.930000	1.043107
5.931000	1.105915
5.932000	1.154229
5.933000	1.186117
5.934000	1.310123
5.935000	1.515619
5.936000	1.705333
5.937000	2.182355
5.938000	2.465477
5.939000	2.506705
5.940000	2.494465
5.941000	2.431979
5.942000	1.853174
5.943000	1.184506
5.944000	0.937138
5.945000	0.780600
5.946000	0.750323
5.947000	0.901063
5.948000	1.123630
5.949000	1.272760
5.950000	1.331059
5.951000	1.346198
5.952000	1.234431
5.953000	1.164858
5.954000	1.132649
5.955000	1.220903
5.956000	1.485665
5.957000	1.691483
5.958000	1.783602
5.959000	1.840935
5.960000	1.898590
5.961000	1.987166
5.962000	1.929189
5.963000	1.807759
5.964000	1.687296
5.965000	1.589379
5.966000	1.567477
5.967000	1.437028
5.968000	1.285966
5.969000	1.230566
5.970000	1.248603
5.971000	1.325906
5.972000	1.638659
5.973000	2.223583
5.974000	2.481260
5.975000	2.491567
5.976000	2.493499
5.977000	2.486091
5.978000	2.435844
5.979000	2.333740
5.980000	1.836748
5.981000	1.311089
5.982000	1.065009
5.983000	1.017661
5.984000	1.060822
5.985000	1.037309
5.986000	0.947123
5.987000	0.925542
5.988000	0.822150
5.989000	0.744848
5.990000	0.748068
5.991000	0.728421
5.992000	0.785753
5.993000	0.982231
5.994000	1.265996
5.995000	1.689228
5.996000	2.112139
5.997000	2.309583
5.998000	2.380444
5.999000	2.372391
6.000000	2.178168
6.001000	1.877976
6.002000	1.738831
6.003000	1.596787
6.004000	1.636083
6.005000	1.707266
6.006000	1.654764
6.007000	1.494683
6.008000	1.289831
6.009000	1.080470
6.010000	1.078215
6.011000	1.342010
6.012000	1.783602
6.013000	2.273508
6.014000	2.457424
6.015000	2.496720
6.016000	2.499619
6.017000	2.505739
6.018000	2.476106
6.019000	2.249029
6.020000	1.716284
6.021000	1.375186
6.022000	1.067908
6.023000	0.846951
6.024000	0.795738
6.025000	0.717470
6.026000	0.733896
6.027000	0.832779
6.028000	0.994148
6.029000	1.381950
6.030000	1.831272
6.031000	2.210378
6.032000	2.214243
6.033000	1.704367
6.034000	1.321396
6.035000	1.241195
6.036000	1.278880
6.037000	1.189016
6.038000	1.227345
6.039000	1.451522
6.040000	1.854785
6.041000	2.076064
6.042000	2.010679
6.043000	1.753325
6.044000	1.402242
6.045000	1.304970
6.046000	1.897301
6.047000	2.374002
6.048000	2.439709
6.049000	2.433589
6.050000	2.325688
6.051000	1.838036
6.052000	1.346198
6.053000	0.799604
6.054000	0.655305
6.055000	0.646609
6.056000	0.654017
6.057000	0.786720
6.058000	1.048582
6.059000	1.485665
6.060000	1.666360
6.061000	1.688906
6.062000	1.663783
6.063000	1.674734
6.064000	1.685685
6.065000	1.789400
6.066000	1.665715
6.067000	1.756868
6.068000	1.998117
6.069000	2.126633
6.070000	2.041278
6.071000	1.821931
6.072000	1.429942
6.073000	1.027002
6.074000	0.923932
6.075000	0.958396
6.076000	1.095930
6.077000	1.205120
6.078000	1.252468
6.079000	1.310767
6.080000	1.352962
6.081000	1.459575
6.082000	1.939496
6.083000	2.309905
6.084000	2.473207
6.085000	2.498008
6.086000	2.495110
6.087000	2.424893
6.088000	1.976859
6.089000	1.272438
6.090000	0.913303
6.091000	0.827948
6.092000	0.890112
6.093000	1.210918
6.094000	1.468593
6.095000	1.535267
6.096000	1.490496
6.097000	1.313022
6.098000	1.173555
6.099000	1.330415
6.100000	1.646712
6.101000	1.942395
6.102000	2.061248
6.103000	2.087337
6.104000	2.040311
6.105000	1.875399
6.106000	1.567477
6.107000	1.334280
6.108000	1.193847
6.109000	1.194169
6.110000	1.196746
6.111000	1.116544
6.112000	1.167113
6.113000	1.343943
6.114000	1.526571
6.115000	1.770718
6.116000	2.033547
6.117000	2.243231
6.118000	2.196527
6.119000	2.249995
6.120000	2.350811
6.121000	2.458069
6.122000	2.341792
6.123000	1.820321
6.124000	1.361014
6.125000	1.129428
6.126000	0.980943
6.127000	1.132971
6.128000	1.447013
6.129000	1.874111
6.130000	2.207157
6.131000	2.119869
6.132000	1.832882
6.133000	1.440249
6.134000	1.024425
6.135000	0.923932
6.136000	1.165825
6.137000	1.663139
6.138000	2.024207
6.139000	2.104730
6.140000	1.982657
6.141000	1.716284
6.142000	1.306902
6.143000	0.804435
6.144000	0.706196
6.145000	0.734863
6.146000	0.768360
6.147000	0.756765
6.148000	0.761919
6.149000	1.053414
6.150000	1.676667
6.151000	2.030971
6.152000	2.278984
6.153000	2.402024
6.154000	2.442608
6.155000	2.438743
6.156000	2.396549
6.157000	2.121479
6.158000	1.659918
6.159000	1.467305
6.160000	1.273726
6.161000	1.065653
6.162000	1.057601
6.163000	1.065976
6.164000	1.107526
6.165000	1.275981
6.166000	1.550083
6.167000	1.619656
6.168000	1.528181
6.169000	1.458286
6.170000	1.481477
6.171000	1.669580
6.172000	1.912118
6.173000	2.027428
6.174000	2.025173
6.175000	1.918882
6.176000	1.715318
6.177000	1.256655
6.178000	0.884314
6.179000	0.728743
6.180000	0.891723
6.181000	1.172267
6.182000	1.486953
6.183000	1.655408
6.184000	1.596465
6.185000	1.433807
6.186000	1.461830
6.187000	1.505312
6.188000	1.483732
6.189000	1.727880
6.190000	2.300242
6.191000	2.491567
6.192000	2.495754
6.193000	2.268677
6.194000	1.615791
6.195000	1.179997
6.196000	0.952276
6.197000	0.881093
6.198000	1.000590
6.199000	1.188049
6.200000	1.453777
6.201000	1.833849
6.202000	1.987810
6.203000	1.880230
6.204000	1.565866
6.205000	1.246026
6.206000	1.026358
6.207000	1.027324
6.208000	1.215427
6.209000	1.513687
6.210000	1.925002
6.211000	2.330519
6.212000	2.464833
6.213000	2.482870
6.214000	2.431657
6.215000	2.170116
6.216000	1.688906
6.217000	1.320108
6.218000	1.238618
6.219000	1.279202
6.220000	1.250536
6.221000	1.141346
6.222000	0.986418
6.223000	0.958074
6.224000	1.146821
6.225000	1.674090
6.226000	2.262235
6.227000	2.441964
6.228000	2.447762
6.229000	2.277373
6.230000	1.756546
6.231000	1.359403
6.232000	0.960006
6.233000	0.797671
6.234000	0.877228
6.235000	1.105915
6.236000	1.490174
6.237000	1.739475
6.238000	1.690839
6.239000	1.681176
6.240000	1.695348
6.241000	1.706299
6.242000	1.403853
6.243000	1.126529
6.244000	0.932306
6.245000	0.972568
6.246000	1.172267
6.247000	1.366167
6.248000	1.466983
6.249000	1.681498
6.250000	2.022918
6.251000	2.319890
6.252000	2.421350
6.253000	2.456780
6.254000	2.492855
6.255000	2.501874
6.256000	2.498653
6.257000	2.476750
6.258000	2.385919
6.259000	2.053517
6.260000	1.512398
6.261000	1.020882
6.262000	0.800248
6.263000	0.791873
6.264000	0.834390
6.265000	0.845019
6.266000	0.884636
6.267000	0.992216
6.268000	1.146821
6.269000	1.391935
6.270000	1.357471
6.271000	1.479545
6.272000	1.569409
6.273000	1.579716
6.274000	1.487275
6.275000	1.313988
6.276000	1.260198
6.277000	1.213817
6.278000	1.297561
6.279000	1.549117
6.280000	1.900522
6.281000	2.183000
6.282000	2.360474
6.283000	2.455814
6.284000	2.498975
6.285000	2.765026
6.286000	2.767924
6.287000	2.767280
6.288000	2.766314
6.289000	2.322145
6.290000	1.258266
6.291000	0.718114
6.292000	0.637268
6.293000	0.638879
6.294000	0.711994
6.295000	0.876584
6.296000	0.945512
6.297000	1.130072
6.298000	1.383561
6.299000	1.417058
6.300000	1.097541
6.301000	1.000590
6.302000	1.007676
6.303000	1.114612
6.304000	1.305936
6.305000	1.598398
6.306000	1.914372
6.307000	2.003915
6.308000	2.066079
6.309000	2.112783
6.310000	2.037413
6.311000	1.761055
6.312000	1.557814
6.313000	1.314310
6.314000	1.197390
6.315000	1.160671
6.316000	1.223480
6.317000	1.385493
6.318000	1.696636
6.319000	1.780703
6.320000	1.870890
6.321000	1.886028
6.322000	1.894725
6.323000	1.880875
6.324000	2.239366
6.325000	2.486091
6.326000	2.497686
6.327000	2.768569
6.328000	2.768246
6.329000	2.509926
6.330000	2.445185
6.331000	1.865414
6.332000	1.151008
6.333000	0.847918
6.334000	0.799281
6.335000	0.839865
6.336000	0.860479
6.337000	0.802180
6.338000	0.863056
6.339000	0.935205
6.340000	1.037309
6.341000	1.202221
6.342000	1.342977
6.343000	1.409972
6.344000	1.438961
6.345000	1.467949
6.346000	1.544286
6.347000	1.632862
6.348000	1.728524
6.349000	1.732389
6.350000	1.728846
6.351000	1.704367
6.352000	1.683108
6.353000	1.591956
6.354000	1.511754
6.355000	1.451845
6.356000	1.522705
6.357000	1.690839
6.358000	1.746883
6.359000	1.784890
6.360000	1.793587
6.361000	2.177524
6.362000	2.420384
6.363000	2.473207
6.364000	2.495432
6.365000	2.490278
6.366000	2.475784
6.367000	2.359185
6.368000	1.682464
6.369000	1.118477
6.370000	0.902674
6.371000	0.809266
6.372000	0.952598
6.373000	1.201255
6.374000	1.260843
6.375000	1.161960
6.376000	1.000590
6.377000	0.883026
6.378000	0.879805
6.379000	0.946156
6.380000	1.042785
6.381000	1.277914
6.382000	1.594855
6.383000	1.899878
6.384000	1.907931
6.385000	1.764920
6.386000	1.675700
6.387000	1.559424
6.388000	1.424467
6.389000	1.513365
6.390000	1.647034
6.391000	1.704045
6.392000	1.782314
6.393000	1.874111
6.394000	2.096356
6.395000	2.429402
6.396000	2.497364
6.397000	2.767280
6.398000	2.764059
6.399000	2.506705
6.400000	2.069300
6.401000	1.160349
6.402000	0.739050
6.403000	0.648541
6.404000	0.748391
6.405000	0.844697
6.406000	1.034410
6.407000	1.311411
6.408000	1.417058
6.409000	1.505956
6.410000	1.504990
6.411000	1.570375
6.412000	1.528181
6.413000	1.485020
6.414000	1.447979
6.415000	1.478578
6.416000	1.514653
6.417000	1.317853
6.418000	1.317853
6.419000	1.449912
6.420000	1.610959
6.421000	1.877654
6.422000	2.290257
6.423000	2.448406
6.424000	2.495432
6.425000	2.766636
6.426000	2.767924
6.427000	2.762771
6.428000	2.766636
6.429000	2.764703
6.430000	2.533439
6.431000	2.391395
6.432000	2.150468
6.433000	2.131786
6.434000	2.377545
6.435000	2.488024
6.436000	2.494143
6.437000	2.768246
6.438000	2.766636
6.439000	2.764059
6.440000	2.766636
6.441000	2.770179
6.442000	2.697063
6.443000	2.496720
6.444000	2.464833
6.445000	2.470952
6.446000	2.478361
6.447000	2.479649
6.448000	2.476106
6.449000	2.460323
6.450000	2.359185
6.451000	2.109884
6.452000	2.058027
6.453000	2.150468
6.454000	2.225194
6.455000	2.283493
6.456000	2.241621
6.457000	2.180101
6.458000	2.227127
6.459000	2.371103
6.460000	2.388818
6.461000	2.418451
6.462000	2.414264
6.463000	2.352421
6.464000	2.140161
6.465000	1.902455
6.466000	1.765887
6.467000	1.594855
6.468000	1.455388
6.469000	1.384527
6.470000	1.433807
6.471000	1.498548
6.472000	1.490496
6.473000	1.515941
6.474000	1.563289
6.475000	1.623199
6.476000	1.756546
6.477000	1.858972
6.478000	1.939496
6.479000	2.023885
6.480000	2.163352
6.481000	2.300242
6.482000	2.289291
6.483000	2.189119
6.484000	2.045143
6.485000	1.910507
6.486000	1.823220
6.487000	1.682464
6.488000	1.575207
6.489000	1.572952
6.490000	1.635761
6.491000	1.745273
6.492000	1.854141
6.493000	1.844478
6.494000	1.612570
6.495000	1.389680
6.496000	1.250858
6.497000	1.162926
6.498000	1.092065
6.499000	1.010897
6.500000	1.016051
6.501000	1.098185
6.502000	1.361658
6.503000	1.768786
6.504000	2.121801
6.505000	2.293478
6.506000	2.263845
6.507000	2.143060
6.508000	1.950447
6.509000	1.795197
6.510000	1.606450
6.511000	1.639626
6.512000	1.823542
6.513000	1.983301
6.514000	2.108273
6.515000	2.119869
6.516000	2.029360
6.517000	1.862837
6.518000	1.602907
6.519000	1.384527
6.520000	1.233142
6.521000	1.091099
6.522000	1.025070
6.523000	1.199323
6.524000	1.349096
6.525000	1.347808
6.526000	1.481155
6.527000	1.691483
6.528000	1.993608
6.529000	2.324399
6.530000	2.446473
6.531000	2.445829
6.532000	2.384953
6.533000	1.963009
6.534000	1.476324
6.535000	1.502413
6.536000	1.618367
6.537000	1.445403
6.538000	1.462796
6.539000	1.490818
6.540000	1.586158
6.541000	2.006814
6.542000	2.059637
6.543000	1.864770
6.544000	1.730134
6.545000	1.453777
6.546000	1.189338
6.547000	1.028613
6.548000	0.773836
6.549000	0.707807
6.550000	0.794128
6.551000	0.958718
6.552000	1.186117
6.553000	1.556203
6.554000	1.869601
6.555000	1.941106
6.556000	1.820965
6.557000	1.627708
6.558000	1.258588
6.559000	1.097863
6.560000	1.152619
6.561000	1.325906
6.562000	1.405463
6.563000	1.572308
6.564000	1.831916
6.565000	1.958821
6.566000	1.945294
6.567000	1.862837
6.568000	1.714352
6.569000	1.523027
6.570000	1.370677
6.571000	1.466339
6.572000	1.691805
6.573000	2.073809
6.574000	2.305074
6.575000	2.307650
6.576000	2.149824
6.577000	1.796486
6.578000	1.425111
6.579000	1.129428
6.580000	0.987385
6.581000	0.933917
6.582000	1.036021
6.583000	1.137480
6.584000	1.141990
6.585000	1.148432
6.586000	1.240873
6.587000	1.460219
6.588000	1.527537
6.589000	1.644457
6.590000	1.902777
6.591000	2.030971
6.592000	1.991997
6.593000	1.934986
6.594000	1.814201
6.595000	1.482121
6.596000	1.189982
6.597000	1.012830
6.598000	0.968703
6.599000	1.001879
6.600000	1.129428
6.601000	1.472781
6.602000	1.893114
6.603000	2.260302
6.604000	2.325365
6.605000	2.157554
6.606000	2.039023
6.607000	1.975570
6.608000	1.791976
6.609000	1.865092
6.610000	1.941428
6.611000	1.983301
6.612000	2.050619
6.613000	2.088948
6.614000	2.109240
6.615000	2.140805
6.616000	2.126955
6.617000	2.006814
6.618000	1.846733
6.619000	1.826441
6.620000	1.663783
6.621000	1.427365
6.622000	1.349741
6.623000	1.526893
6.624000	1.920492
6.625000	2.181389
6.626000	2.107951
6.627000	1.626742
6.628000	1.242483
6.629000	0.947445
6.630000	0.752900
6.631000	0.652084
6.632000	0.672376
6.633000	0.968059
6.634000	1.322041
6.635000	1.632862
6.636000	1.834171
6.637000	1.791654
6.638000	1.581971
6.639000	1.349096
6.640000	1.175165
6.641000	1.032156
6.642000	1.023459
6.643000	1.102372
6.644000	1.275337
6.645000	1.554271
6.646000	1.843512
6.647000	2.045787
6.648000	2.065435
6.649000	1.854141
6.650000	1.559746
6.651000	1.294018
6.652000	1.119121
6.653000	1.071129
6.654000	1.289187
6.655000	1.722082
6.656000	1.879908
6.657000	1.741730
6.658000	1.628997
6.659000	1.510788
6.660000	1.370355
6.661000	1.311734
6.662000	1.348452
6.663000	1.454099
6.664000	1.568443
6.665000	1.601296
6.666000	1.636405
6.667000	1.623199
6.668000	1.686329
6.669000	2.080573
6.670000	2.427792
6.671000	2.497042
6.672000	2.766636
6.673000	2.767924
6.674000	2.503162
6.675000	2.079929
6.676000	1.298528
6.677000	1.017339
6.678000	1.045361
6.679000	1.094320
6.680000	1.211562
6.681000	1.308190
6.682000	1.258266
6.683000	1.137480
6.684000	1.032800
6.685000	0.990605
6.686000	1.025714
6.687000	1.206087
6.688000	1.491140
6.689000	1.671513
6.690000	1.735932
6.691000	1.618367
6.692000	1.348452
6.693000	1.196424
6.694000	1.415448
6.695000	2.030649
6.696000	2.479005
6.697000	2.499941
6.698000	2.767924
6.699000	2.652614
6.700000	2.406856
6.701000	2.033225
6.702000	1.570053
6.703000	1.187405
6.704000	1.029579
6.705000	1.090133
6.706000	1.038920
6.707000	0.824405
6.708000	0.722301
6.709000	0.909760
6.710000	1.362947
6.711000	1.733355
6.712000	1.853497
6.713000	1.727235
6.714000	1.425433
6.715000	1.235075
6.716000	0.980298
6.717000	0.916202
6.718000	1.049871
6.719000	1.308513
6.720000	1.797452
6.721000	2.240977
6.722000	2.479971
6.723000	2.497042
6.724000	2.493499
6.725000	2.438421
6.726000	2.135329
6.727000	1.504346
6.728000	1.143278
6.729000	0.974823
6.730000	0.844375
6.731000	0.982231
6.732000	1.203832
6.733000	1.368100
6.734000	1.437028
6.735000	1.539776
6.736000	1.662494
6.737000	1.700824
6.738000	1.650255
6.739000	1.467949
6.740000	1.336213
6.741000	1.199000
6.742000	1.115900
6.743000	1.084979
6.744000	1.139413
6.745000	1.277592
6.746000	1.524638
6.747000	1.589057
6.748000	1.665715
6.749000	1.828051
6.750000	1.841579
6.751000	1.806471
6.752000	1.800995
6.753000	1.771040
6.754000	1.600652
6.755000	1.654120
6.756000	1.886028
6.757000	2.327620
6.758000	2.487379
6.759000	2.497686
6.760000	2.478039
6.761000	2.372391
6.762000	1.796164
6.763000	1.084657
6.764000	0.859191
6.765000	0.840832
6.766000	1.038920
6.767000	1.262131
6.768000	1.283389
6.769000	1.297561
6.770000	1.528181
6.771000	1.780703
6.772000	1.970095
6.773000	2.267388
6.774000	2.421672
6.775000	2.463222
6.776000	2.414264
6.777000	1.926934
6.778000	1.430264
6.779000	1.196424
6.780000	0.943258
6.781000	0.735507
6.782000	0.655627
6.783000	0.665934
6.784000	0.872719
6.785000	1.246348
6.786000	1.642525
6.787000	1.924035
6.788000	2.060603
6.789000	2.311515
6.790000	2.496076
6.791000	2.766636
6.792000	2.765992
6.793000	2.762449
6.794000	2.420384
6.795000	1.411261
6.796000	0.944546
6.797000	0.664646
6.798000	0.639523
6.799000	0.699110
6.800000	0.872719
6.801000	1.076605
6.802000	1.167435
6.803000	1.160349
6.804000	1.310767
6.805000	1.498548
6.806000	1.514009
6.807000	1.471814
6.808000	1.515297
6.809000	1.559424
6.810000	1.483088
6.811000	1.264386
6.812000	1.106237
6.813000	1.251824
6.814000	1.609993
6.815000	1.950769
6.816000	2.089914
6.817000	1.994252
6.818000	1.839646
6.819000	1.663461
6.820000	1.389358
6.821000	1.242161
6.822000	1.146499
6.823000	1.175488
6.824000	1.247637
6.825000	1.153263
6.826000	1.143600
6.827000	1.298206
6.828000	1.527537
6.829000	1.729490
6.830000	1.836103
6.831000	1.861227
6.832000	1.849953
6.833000	1.971705
6.834000	2.004237
6.835000	1.891826
6.836000	1.720794
6.837000	1.801961
6.838000	1.822898
6.839000	1.801317
6.840000	1.745917
6.841000	1.560068
6.842000	1.396122
6.843000	1.279202
6.844000	1.163248
6.845000	1.175165
6.846000	1.375830
6.847000	1.621588
6.848000	1.922747
6.849000	1.941106
6.850000	1.841257
6.851000	1.693738
6.852000	1.606450
6.853000	1.289187
6.854000	1.078215
6.855000	1.060500
6.856000	1.065653
6.857000	1.094642
6.858000	1.277592
6.859000	1.671513
6.860000	2.197172
6.861000	2.452271
6.862000	2.494143
6.863000	2.489312
6.864000	2.411365
6.865000	2.078319
6.866000	1.562001
6.867000	1.171945
6.868000	0.859513
6.869000	0.739694
6.870000	0.814098
6.871000	1.045039
6.872000	1.739797
6.873000	2.433589
6.874000	2.495754
6.875000	2.499297
6.876000	2.403635
6.877000	1.826441
6.878000	1.281457
6.879000	0.996403
6.880000	0.824405
6.881000	0.767394
6.882000	0.832457
6.883000	0.967415
6.884000	1.060178
6.885000	1.177420
6.886000	1.583903
6.887000	2.366916
6.888000	2.492211
6.889000	2.475140
6.890000	2.336317
6.891000	2.023885
6.892000	1.631573
6.893000	1.194491
6.894000	0.819573
6.895000	0.801214
6.896000	0.948089
6.897000	1.030223
6.898000	1.001557
6.899000	1.038597
6.900000	1.109458
6.901000	1.206409
6.902000	1.351029
6.903000	1.552016
6.904000	1.775228
6.905000	1.904065
6.906000	1.850920
6.907000	1.753325
6.908000	1.773295
6.909000	1.800351
6.910000	1.732389
6.911000	1.597109
6.912000	1.563933
6.913000	1.542031
6.914000	1.485665
6.915000	1.439605
6.916000	1.441215
6.917000	1.351673
6.918000	1.260198
6.919000	1.230888
6.920000	1.241839
6.921000	1.269861
6.922000	1.285644
6.923000	1.290475
6.924000	1.316565
6.925000	1.389358
6.926000	1.515619
6.927000	1.598398
6.928000	1.669258
6.929000	1.714352
6.930000	1.713707
6.931000	1.679888
6.932000	1.663461
6.933000	1.680532
6.934000	1.709842
6.935000	1.756224
6.936000	1.937563
6.937000	2.144992
6.938000	2.204580
6.939000	2.187187
6.940000	2.011001
6.941000	1.905354
6.942000	1.905032
6.943000	1.880552
6.944000	1.680210
6.945000	1.445725
6.946000	1.324939
6.947000	1.400954
6.948000	1.665071
6.949000	1.928867
6.950000	1.834815
6.951000	1.628997
6.952000	1.512720
6.953000	1.259876
6.954000	1.079503
6.955000	1.323329
6.956000	1.796486
6.957000	2.166251
6.958000	2.306684
6.959000	2.263201
6.960000	2.108273
6.961000	1.956889
6.962000	1.511432
6.963000	1.186439
6.964000	1.075960
6.965000	1.029257
6.966000	1.057601
6.967000	1.033444
6.968000	0.911048
6.969000	0.950344
6.970000	1.068552
6.971000	1.326228
6.972000	1.868957
6.973000	2.279628
6.974000	2.358219
6.975000	2.139517
6.976000	1.702434
6.977000	1.297883
6.978000	1.022493
6.979000	0.966448
6.980000	1.028290
6.981000	1.223480
6.982000	1.509499
6.983000	1.685363
6.984000	1.803572
6.985000	1.897301
6.986000	1.951735
6.987000	1.908897
6.988000	1.727558
6.989000	1.474391
6.990000	1.224124
6.991000	1.027968
6.992000	1.042463
6.993000	1.058889
6.994000	1.150686
6.995000	1.316243
6.996000	1.436062
6.997000	1.575851
6.998000	1.817744
6.999000	2.023885
7.000000	2.195239
7.001000	2.279306
7.002000	2.250639
7.003000	2.203291
7.004000	2.034514
7.005000	1.691161
7.006000	1.416736
7.007000	1.448946
7.008000	1.498548
7.009000	1.542353
7.010000	1.553626
7.011000	1.560713
7.012000	1.540743
7.013000	1.479545
7.014000	1.573596
7.015000	1.666037
7.016000	1.648966
7.017000	1.464084
7.018000	1.310445
7.019000	1.314310
7.020000	1.502413
7.021000	1.609349
7.022000	1.712419
7.023000	1.740119
7.024000	1.734966
7.025000	1.638659
7.026000	1.518518
7.027000	1.365201
7.028000	1.235075
7.029000	1.224768
7.030000	1.236686
7.031000	1.141023
7.032000	1.161960
7.033000	1.280168
7.034000	1.462152
7.035000	1.755258
7.036000	2.103764
7.037000	2.254827
7.038000	2.233568
7.039000	2.310549
7.040000	2.310549
7.041000	2.202325
7.042000	1.982657
7.043000	1.609993
7.044000	1.397411
7.045000	1.361980
7.046000	1.193203
7.047000	1.080792
7.048000	1.048582
7.049000	1.072095
7.050000	1.070485
7.051000	1.022815
7.052000	1.036665
7.053000	1.198034
7.054000	1.487597
7.055000	1.888283
7.056000	2.248063
7.057000	2.343403
7.058000	2.388818
7.059000	2.358219
7.060000	2.192018
7.061000	1.824186
7.062000	1.410616
7.063000	1.165503
7.064000	1.004133
7.065000	1.006066
7.066000	1.096897
7.067000	1.313666
7.068000	1.611926
7.069000	1.966552
7.070000	2.168827
7.071000	2.226482
7.072000	2.251606
7.073000	2.277695
7.074000	2.180745
7.075000	1.976537
7.076000	1.567477
7.077000	1.196424
7.078000	0.963872
7.079000	0.886247
7.080000	0.832457
7.081000	0.814420
7.082000	0.898164
7.083000	1.040852
7.084000	1.248281
7.085000	1.481155
7.086000	1.760089
7.087000	2.147891
7.088000	2.409110
7.089000	2.484803
7.090000	2.494143
7.091000	2.497364
7.092000	2.498331
7.093000	2.494143
7.094000	2.308294
7.095000	1.499192
7.096000	1.106881
7.097000	1.091099
7.098000	1.110425
7.099000	1.069519
7.100000	0.995115
7.101000	0.975467
7.102000	1.056635
7.103000	1.256333
7.104000	1.214783
7.105000	1.026358
7.106000	1.045361
7.107000	1.050837
7.108000	1.149720
7.109000	1.142956
7.110000	1.280490
7.111000	1.587124
7.112000	1.988776
7.113000	2.213599
7.114000	2.359830
7.115000	2.378189
7.116000	2.247419
7.117000	1.898590
7.118000	1.205120
7.119000	0.775446
7.120000	0.649508
7.121000	0.656272
7.122000	0.690736
7.123000	0.788008
7.124000	0.990605
7.125000	1.339112
7.126000	1.715640
7.127000	1.836103
7.128000	1.725947
7.129000	1.466661
7.130000	1.441215
7.131000	1.458931
7.132000	1.403208
7.133000	1.464084
7.134000	1.493073
7.135000	1.508533
7.136000	1.366490
7.137000	1.192881
7.138000	1.088844
7.139000	1.110425
7.140000	1.298528
7.141000	1.542353
7.142000	1.793265
7.143000	2.016154
7.144000	2.208445
7.145000	2.322789
7.146000	2.351133
7.147000	2.351133
7.148000	2.297987
7.149000	2.240977
7.150000	2.086371
7.151000	1.638015
7.152000	1.263097
7.153000	1.106237
7.154000	1.220903
7.155000	1.649289
7.156000	1.976859
7.157000	2.026139
7.158000	1.950447
7.159000	1.815489
7.160000	1.617723
7.161000	1.287899
7.162000	1.017983
7.163000	0.884636
7.164000	0.899131
7.165000	1.119121
7.166000	1.284033
7.167000	1.390969
7.168000	1.492106
7.169000	1.640592
7.170000	1.732389
7.171000	1.681176
7.172000	1.575851
7.173000	1.784890
7.174000	2.296055
7.175000	2.482870
7.176000	2.495110
7.177000	2.485769
7.178000	2.362729
7.179000	1.894725
7.180000	1.227345
7.181000	0.797027
7.182000	0.656272
7.183000	0.659493
7.184000	0.770937
7.185000	0.940359
7.186000	1.061788
7.187000	1.212206
7.188000	1.370999
7.189000	1.461185
7.190000	1.567799
7.191000	1.690839
7.192000	1.674090
7.193000	1.621266
7.194000	1.586480
7.195000	1.571342
7.196000	1.490174
7.197000	1.496294
7.198000	1.523350
7.199000	1.551694
7.200000	1.630929
7.201000	1.691483
7.202000	1.508533
7.203000	1.376797
7.204000	1.450234
7.205000	1.643813
7.206000	1.790044
7.207000	1.928867
7.208000	2.037091
7.209000	2.065113
7.210000	1.979113
7.211000	1.777160
7.212000	1.536555
7.213000	1.465050
7.214000	1.602585
7.215000	1.616113
7.216000	1.542031
7.217000	1.440571
7.218000	1.571020
7.219000	1.849309
7.220000	2.151756
7.221000	2.260624
7.222000	2.310549
7.223000	2.372391
7.224000	2.324077
7.225000	1.829984
7.226000	1.495327
7.227000	1.317853
7.228000	1.200289
7.229000	1.223480
7.230000	1.193525
7.231000	1.142312
7.232000	1.149076
7.233000	1.103661
7.234000	1.113323
7.235000	1.217682
7.236000	1.432197
7.237000	1.567154
7.238000	1.444436
7.239000	1.197068
7.240000	1.058889
7.241000	1.056957
7.242000	1.149398
7.243000	1.340722
7.244000	1.631251
7.245000	1.878298
7.246000	1.979758
7.247000	1.877009
7.248000	1.683431
7.249000	1.490818
7.250000	1.280812
7.251000	1.141990
7.252000	1.113645
7.253000	1.263097
7.254000	1.577784
7.255000	1.881841
7.256000	1.976859
7.257000	1.839324
7.258000	1.764598
7.259000	2.036768
7.260000	2.209089
7.261000	2.086371
7.262000	2.180423
7.263000	2.274474
7.264000	2.144670
7.265000	1.835459
7.266000	1.525604
7.267000	1.133615
7.268000	0.944546
7.269000	0.933273
7.270000	0.962905
7.271000	0.969025
7.272000	1.005422
7.273000	1.098185
7.274000	1.233142
7.275000	1.432841
7.276000	1.522383
7.277000	1.571986
7.278000	1.548473
7.279000	1.598075
7.280000	1.708876
7.281000	1.750426
7.282000	1.784568
7.283000	1.774583
7.284000	1.738509
7.285000	1.695992
7.286000	1.651221
7.287000	1.525926
7.288000	1.339434
7.289000	1.219615
7.290000	1.222835
7.291000	1.236363
7.292000	1.269539
7.293000	1.388070
7.294000	1.573918
7.295000	1.690195
7.296000	1.926934
7.297000	2.090558
7.298000	2.078319
7.299000	1.932410
7.300000	1.917271
7.301000	2.067045
7.302000	2.153689
7.303000	2.071233
7.304000	1.883451
7.305000	1.780059
7.306000	1.523027
7.307000	1.320430
7.308000	1.256977
7.309000	1.476646
7.310000	1.771040
7.311000	2.036768
7.312000	2.257403
7.313000	2.191052
7.314000	1.849309
7.315000	1.482766
7.316000	1.171622
7.317000	0.990283
7.318000	0.994793
7.319000	1.118155
7.320000	1.354894
7.321000	1.555881
7.322000	1.691161
7.323000	1.862193
7.324000	1.959788
7.325000	1.878298
7.326000	1.715318
7.327000	1.538166
7.328000	1.418991
7.329000	1.431231
7.330000	1.461507
7.331000	1.554593
7.332000	1.719505
7.333000	1.797774
7.334000	1.721760
7.335000	1.653154
7.336000	1.534945
7.337000	1.657985
7.338000	1.969451
7.339000	2.238722
7.340000	2.328586
7.341000	2.258048
7.342000	2.200071
7.343000	1.874755
7.344000	1.532690
7.345000	1.238940
7.346000	1.049871
7.347000	0.911370
7.348000	0.981265
7.349000	1.127173
7.350000	1.294340
7.351000	1.601296
7.352000	1.656375
7.353000	1.441860
7.354000	1.230244
7.355000	1.129750
7.356000	1.060500
7.357000	1.108814
7.358000	1.287254
7.359000	1.510144
7.360000	1.779737
7.361000	2.016154
7.362000	2.090880
7.363000	1.870245
7.364000	1.504668
7.365000	1.183218
7.366000	1.069196
7.367000	1.070485
7.368000	1.074028
7.369000	1.139735
7.370000	1.267284
7.371000	1.443792
7.372000	1.549439
7.373000	1.584548
7.374000	1.607738
7.375000	1.661850
7.376000	1.810980
7.377000	2.056094
7.378000	2.198460
7.379000	2.123412
7.380000	2.089914
7.381000	1.902133
7.382000	1.668614
7.383000	1.436706
7.384000	1.304647
7.385000	1.315277
7.386000	1.431875
7.387000	1.604839
7.388000	1.778771
7.389000	1.781992
7.390000	1.650899
7.391000	1.522705
7.392000	1.520451
7.393000	1.562645
7.394000	1.504990
7.395000	1.511110
7.396000	1.523994
7.397000	1.551050
7.398000	1.488885
7.399000	1.415770
7.400000	1.398699
7.401000	1.411583
7.402000	1.468271
7.403000	1.667326
7.404000	2.039345
7.405000	2.168183
7.406000	2.284459
7.407000	2.357575
7.408000	2.183322
7.409000	1.925324
7.410000	1.765887
7.411000	1.910185
7.412000	2.086049
7.413000	2.240332
7.414000	2.199426
7.415000	2.031937
7.416000	1.613858
7.417000	1.246670
7.418000	0.982875
7.419000	0.791873
7.420000	0.822472
7.421000	0.897198
7.422000	1.024103
7.423000	1.122020
7.424000	1.167757
7.425000	1.186117
7.426000	1.255367
7.427000	1.461507
7.428000	1.763632
7.429000	1.896657
7.430000	1.995862
7.431000	1.991031
7.432000	2.112783
7.433000	2.249673
7.434000	2.310871
7.435000	2.304429
7.436000	2.231636
7.437000	2.016154
7.438000	1.906320
7.439000	1.999728
7.440000	2.126955
7.441000	2.026139
7.442000	1.849631
7.443000	1.615147
7.444000	1.373254
7.445000	1.098507
7.446000	0.818285
7.447000	0.698144
7.448000	0.790263
7.449000	0.921355
7.450000	1.043751
7.451000	1.211884
7.452000	1.437028
7.453000	1.628674
7.454000	1.767497
7.455000	1.804216
7.456000	1.743984
7.457000	1.664105
7.458000	1.573274
7.459000	1.586802
7.460000	1.645423
7.461000	1.721760
7.462000	1.800995
7.463000	1.775550
7.464000	1.675056
7.465000	1.462796
7.466000	1.227345
7.467000	1.098507
7.468000	1.103338
7.469000	1.233142
7.470000	1.333314
7.471000	1.438961
7.472000	1.461507
7.473000	1.457964
7.474000	1.477612
7.475000	1.475680
7.476000	1.555237
7.477000	1.728524
7.478000	2.022274
7.479000	2.235179
7.480000	2.302819
7.481000	2.231636
7.482000	1.989098
7.483000	1.680210
7.484000	1.521417
7.485000	1.470526
7.486000	1.380984
7.487000	1.392901
7.488000	1.492428
7.489000	1.638337
7.490000	1.712419
7.491000	1.649289
7.492000	1.555881
7.493000	1.422534
7.494000	1.258588
7.495000	1.256655
7.496000	1.389036
7.497000	1.475035
7.498000	1.663139
7.499000	2.160131
7.500000	2.435200
7.501000	2.494465
7.502000	2.494788
7.503000	2.472885
7.504000	2.335028
7.505000	1.992641
7.506000	1.445403
7.507000	1.054702
7.508000	1.014118
7.509000	1.186439
7.510000	1.488885
7.511000	1.654764
7.512000	1.618367
7.513000	1.425111
7.514000	1.260520
7.515000	1.237974
7.516000	1.236363
7.517000	1.179675
7.518000	1.205764
7.519000	1.310445
7.520000	1.299494
7.521000	1.176776
7.522000	1.036665
7.523000	1.000590
7.524000	1.197712
7.525000	1.625131
7.526000	1.929189
7.527000	2.101187
7.528000	2.130820
7.529000	2.168183
7.530000	2.070266
7.531000	2.036124
7.532000	2.215853
7.533000	2.320212
7.534000	2.339860
7.535000	2.056416
7.536000	1.632540
7.537000	1.203832
7.538000	0.890756
7.539000	0.966126
7.540000	1.226378
7.541000	1.477612
7.542000	1.654764
7.543000	1.827729
7.544000	1.924035
7.545000	1.850920
7.546000	1.512720
7.547000	1.192559
7.548000	1.023781
7.549000	0.924898
7.550000	0.861124
7.551000	0.788330
7.552000	0.863700
7.553000	1.251180
7.554000	1.947870
7.555000	2.365627
7.556000	2.451949
7.557000	2.430691
7.558000	2.243875
7.559000	1.824830
7.560000	1.412227
7.561000	1.102694
7.562000	1.026036
7.563000	1.184506
7.564000	1.353606
7.565000	1.463440
7.566000	1.619012
7.567000	1.723370
7.568000	1.653798
7.569000	1.585192
7.570000	1.586158
7.571000	1.524316
7.572000	1.395156
7.573000	1.299816
7.574000	1.291119
7.575000	1.362947
7.576000	1.396444
7.577000	1.448946
7.578000	1.508211
7.579000	1.639626
7.580000	1.668936
7.581000	1.598075
7.582000	1.449590
7.583000	1.395800
7.584000	1.667326
7.585000	2.220363
7.586000	2.451949
7.587000	2.473529
7.588000	2.453559
7.589000	2.266744
7.590000	1.707588
7.591000	1.299494
7.592000	0.956463
7.593000	0.888824
7.594000	1.046650
7.595000	1.178064
7.596000	1.200289
7.597000	1.119443
7.598000	1.084013
7.599000	1.169690
7.600000	1.362302
7.601000	1.494683
7.602000	1.725947
7.603000	2.014866
7.604000	2.122124
7.605000	1.919848
7.606000	1.605162
7.607000	1.326228
7.608000	1.238940
7.609000	1.384527
7.610000	1.580038
7.611000	1.793265
7.612000	1.977181
7.613000	2.051907
7.614000	2.060603
7.615000	2.016154
7.616000	1.959144
7.617000	1.891182
7.618000	1.671835
7.619000	1.553949
7.620000	1.519162
7.621000	1.391291
7.622000	1.279202
7.623000	1.201255
7.624000	1.076283
7.625000	1.129750
7.626000	1.147465
7.627000	1.182896
7.628000	1.228311
7.629000	1.411261
7.630000	1.704689
7.631000	1.979758
7.632000	2.106019
7.633000	2.121479
7.634000	2.045787
7.635000	1.862837
7.636000	1.562645
7.637000	1.374220
7.638000	1.256333
7.639000	1.209630
7.640000	1.307546
7.641000	1.429620
7.642000	1.396122
7.643000	1.361658
7.644000	1.367134
7.645000	1.374542
7.646000	1.376797
7.647000	1.517230
7.648000	1.818710
7.649000	2.130176
7.650000	2.297665
7.651000	2.335350
7.652000	2.155621
7.653000	1.759767
7.654000	1.456354
7.655000	1.255045
7.656000	1.130394
7.657000	1.112357
7.658000	1.225090
7.659000	1.395800
7.660000	1.596787
7.661000	1.726913
7.662000	1.723692
7.663000	1.708876
7.664000	1.657985
7.665000	1.651543
7.666000	1.604195
7.667000	1.536555
7.668000	1.571342
7.669000	1.667004
7.670000	1.683431
7.671000	1.693738
7.672000	1.723048
7.673000	1.805504
7.674000	1.913728
7.675000	1.987810
7.676000	1.921781
7.677000	1.704689
7.678000	1.399987
7.679000	1.189660
7.680000	1.021204
7.681000	0.946479
7.682000	1.200933
7.683000	1.474391
7.684000	1.611281
7.685000	1.697925
7.686000	1.773617
7.687000	1.832238
7.688000	1.725625
7.689000	1.628997
7.690000	1.591634
7.691000	1.591634
7.692000	1.894080
7.693000	2.299598
7.694000	2.296055
7.695000	2.245808
7.696000	2.127599
7.697000	1.886028
7.698000	1.532368
7.699000	1.157772
7.700000	0.889790
7.701000	0.799604
7.702000	0.823439
7.703000	0.877228
7.704000	0.934561
7.705000	0.995437
7.706000	1.106237
7.707000	1.359081
7.708000	1.620944
7.709000	1.831272
7.710000	2.041922
7.711000	2.026139
7.712000	1.999083
7.713000	1.932732
7.714000	1.796486
7.715000	1.570053
7.716000	1.334602
7.717000	1.206409
7.718000	1.210596
7.719000	1.301104
7.720000	1.401598
7.721000	1.602907
7.722000	1.833849
7.723000	1.965585
7.724000	1.979113
7.725000	1.819999
7.726000	1.783602
7.727000	1.926612
7.728000	1.946904
7.729000	1.900522
7.730000	1.803572
7.731000	1.745595
7.732000	1.617401
7.733000	1.542353
7.734000	1.532368
7.735000	1.549439
7.736000	1.497904
7.737000	1.398055
7.738000	1.355538
7.739000	1.426721
7.740000	1.526571
7.741000	1.872822
7.742000	2.196527
7.743000	2.299276
7.744000	2.187509
7.745000	1.931443
7.746000	1.600008
7.747000	1.212206
7.748000	0.955175
7.749000	0.868532
7.750000	0.939070
7.751000	1.039242
7.752000	1.206087
7.753000	1.608705
7.754000	1.947226
7.755000	2.077997
7.756000	2.130820
7.757000	2.026783
7.758000	1.751393
7.759000	1.697281
7.760000	1.676667
7.761000	1.531080
7.762000	1.373254
7.763000	1.224768
7.764000	1.130716
7.765000	1.018306
7.766000	1.042463
7.767000	1.317531
7.768000	1.701146
7.769000	2.079285
7.770000	2.355320
7.771000	2.378189
7.772000	2.335995
7.773000	2.235501
7.774000	1.730778
7.775000	1.295951
7.776000	1.254401
7.777000	1.312378
7.778000	1.375830
7.779000	1.514975
7.780000	1.730778
7.781000	1.791654
7.782000	1.610637
7.783000	1.467627
7.784000	1.394190
7.785000	1.468271
7.786000	1.456032
7.787000	1.311411
7.788000	1.438639
7.789000	1.845444
7.790000	2.008102
7.791000	2.040311
7.792000	1.883773
7.793000	1.695026
7.794000	1.577784
7.795000	1.396122
7.796000	1.245382
7.797000	1.123630
7.798000	1.076283
7.799000	1.189338
7.800000	1.356505
7.801000	1.437350
7.802000	1.424789
7.803000	1.547829
7.804000	1.759445
7.805000	1.790366
7.806000	1.717573
7.807000	1.525926
7.808000	1.395156
7.809000	1.385493
7.810000	1.611926
7.811000	1.900200
7.812000	2.229059
7.813000	2.442930
7.814000	2.496076
7.815000	2.482226
7.816000	2.332452
7.817000	1.819032
7.818000	1.163570
7.819000	0.703619
7.820000	0.651118
7.821000	0.649508
7.822000	0.772226
7.823000	1.018306
7.824000	1.342010
7.825000	1.676344
7.826000	1.912440
7.827000	1.952380
7.828000	1.914050
7.829000	1.980080
7.830000	1.859616
7.831000	1.742052
7.832000	1.733355
7.833000	1.654442
7.834000	1.461185
7.835000	1.198356
7.836000	1.074994
7.837000	1.054058
7.838000	1.143278
7.839000	1.303037
7.840000	1.512398
7.841000	1.781992
7.842000	1.984267
7.843000	1.988132
7.844000	1.855107
7.845000	1.654120
7.846000	1.447979
7.847000	1.305936
7.848000	1.208019
7.849000	1.212206
7.850000	1.265996
7.851000	1.306580
7.852000	1.257944
7.853000	1.229922
7.854000	1.210596
7.855000	1.268251
7.856000	1.392257
7.857000	1.615791
7.858000	1.997795
7.859000	2.258048
7.860000	2.327620
7.861000	2.415552
7.862000	2.472241
7.863000	2.484158
7.864000	2.473851
7.865000	2.381732
7.866000	2.015188
7.867000	1.650577
7.868000	1.391613
7.869000	0.973534
7.870000	0.930696
7.871000	1.141668
7.872000	1.362302
7.873000	1.411905
7.874000	1.478256
7.875000	1.476646
7.876000	1.411261
7.877000	1.531080
7.878000	1.686329
7.879000	1.824186
7.880000	2.025817
7.881000	1.994252
7.882000	1.661850
7.883000	1.205442
7.884000	1.019916
7.885000	1.072417
7.886000	1.191270
7.887000	1.349419
7.888000	1.521095
7.889000	1.564578
7.890000	1.654764
7.891000	1.578106
7.892000	1.323651
7.893000	1.270183
7.894000	1.329127
7.895000	1.434451
7.896000	1.605484
7.897000	1.741408
7.898000	1.787145
7.899000	1.746561
7.900000	1.630285
7.901000	1.586802
7.902000	1.655086
7.903000	1.784568
7.904000	1.845122
7.905000	1.902777
7.906000	1.877009
7.907000	1.698891
7.908000	1.334924
7.909000	1.082080
7.910000	0.907505
7.911000	0.886891
7.912000	1.054380
7.913000	1.377441
7.914000	1.781992
7.915000	2.289935
7.916000	2.482226
7.917000	2.494143
7.918000	2.492533
7.919000	2.429080
7.920000	2.115682
7.921000	1.633828
7.922000	1.134260
7.923000	0.839543
7.924000	0.877228
7.925000	1.132971
7.926000	1.409328
7.927000	1.657985
7.928000	1.816456
7.929000	1.847699
7.930000	1.775872
7.931000	1.619656
7.932000	1.422212
7.933000	1.447013
7.934000	1.504346
7.935000	1.423500
7.936000	1.494039
7.937000	1.543642
7.938000	1.418669
7.939000	1.288221
7.940000	1.227023
7.941000	1.154229
7.942000	1.237330
7.943000	1.313344
7.944000	1.266318
7.945000	1.149076
7.946000	1.059212
7.947000	0.991572
7.948000	0.971924
7.949000	0.986096
7.950000	1.140701
7.951000	1.572952
7.952000	2.061892
7.953000	2.307972
7.954000	2.324077
7.955000	2.278984
7.956000	2.292190
7.957000	2.289291
7.958000	2.071233
7.959000	1.780703
7.960000	1.648966
7.961000	1.621588
7.962000	1.721760
7.963000	1.840291
7.964000	1.914695
7.965000	1.889571
7.966000	1.783602
7.967000	1.578428
7.968000	1.492106
7.969000	1.414804
7.970000	1.336857
7.971000	1.339434
7.972000	1.453133
7.973000	1.561679
7.974000	1.672801
7.975000	1.557169
7.976000	1.395156
7.977000	1.332670
7.978000	1.243772
7.979000	1.219937
7.980000	1.257622
7.981000	1.373254
7.982000	1.312700
7.983000	1.249891
7.984000	1.259232
7.985000	1.293374
7.986000	1.369066
7.987000	1.542031
7.988000	1.944327
7.989000	2.123412
7.990000	2.226804
7.991000	2.187831
7.992000	1.987810
7.993000	1.686007
7.994000	1.395800
7.995000	1.258910
7.996000	1.318820
7.997000	1.419313
7.998000	1.596465
7.999000	1.775228
8.000000	1.769430
8.001000	1.696959
8.002000	1.458931
8.003000	1.088200
8.004000	0.910404
8.005000	0.902674
8.006000	1.010897
8.007000	1.359726
8.008000	1.838358
8.009000	2.079929
8.010000	2.091202
8.011000	2.020986
8.012000	1.895047
8.013000	1.746561
8.014000	1.625776
8.015000	1.629641
8.016000	1.616757
8.017000	1.725947
8.018000	1.727235
8.019000	1.733033
8.020000	1.724337
8.021000	1.727558
8.022000	1.723048
8.023000	1.669903
8.024000	1.506601
8.025000	1.355860
8.026000	1.257944
8.027000	1.257622
8.028000	1.371643
8.029000	1.501447
8.030000	1.493717
8.031000	1.374220
8.032000	1.429298
8.033000	1.549117
8.034000	1.772973
8.035000	1.847377
8.036000	1.811624
8.037000	1.734321
8.038000	1.628674
8.039000	1.509499
8.040000	1.533012
8.041000	1.691161
8.042000	1.948514
8.043000	2.179779
8.044000	2.347590
8.045000	2.383665
8.046000	2.294444
8.047000	1.965585
8.048000	1.695026
8.049000	1.491462
8.050000	1.270828
8.051000	1.116866
8.052000	1.077571
8.053000	1.034410
8.054000	1.098829
8.055000	1.256333
8.056000	1.352639
8.057000	1.352962
8.058000	1.437672
8.059000	1.741408
8.060000	1.975893
8.061000	2.087015
8.062000	2.086049
8.063000	1.795197
8.064000	1.536555
8.065000	1.308190
8.066000	1.173877
8.067000	1.209630
8.068000	1.315599
8.069000	1.391291
8.070000	1.459253
8.071000	1.459575
8.072000	1.387104
8.073000	1.347486
8.074000	1.233465
8.075000	1.105271
8.076000	1.071129
8.077000	0.990283
8.078000	0.965482
8.079000	0.990928
8.080000	1.167757
8.081000	1.515619
8.082000	1.959144
8.083000	2.338249
8.084000	2.438099
8.085000	2.419739
8.086000	2.338249
8.087000	2.192984
8.088000	1.867991
8.089000	1.611603
8.090000	1.409650
8.091000	1.309801
8.092000	1.328482
8.093000	1.531402
8.094000	1.546218
8.095000	1.531080
8.096000	1.521417
8.097000	1.528825
8.098000	1.520129
8.099000	1.428654
8.100000	1.392901
8.101000	1.418025
8.102000	1.540743
8.103000	1.789722
8.104000	1.880875
8.105000	1.705333
8.106000	1.516263
8.107000	1.471814
8.108000	1.392257
8.109000	1.329771
8.110000	1.326228
8.111000	1.462152
8.112000	1.907286
8.113000	2.257726
8.114000	2.392039
8.115000	2.417485
8.116000	2.301208
8.117000	1.988454
8.118000	1.648966
8.119000	1.399343
8.120000	1.328805
8.121000	1.244416
8.122000	1.310445
8.123000	1.432197
8.124000	1.445725
8.125000	1.344909
8.126000	1.240551
8.127000	1.100440
8.128000	1.002523
8.129000	1.046650
8.130000	1.106237
8.131000	1.145855
8.132000	1.342010
8.133000	1.764920
8.134000	2.178490
8.135000	2.297665
8.136000	2.224550
8.137000	1.984589
8.138000	1.673768
8.139000	1.345231
8.140000	1.148110
8.141000	1.217682
8.142000	1.414482
8.143000	1.571664
8.144000	1.637371
8.145000	1.618045
8.146000	1.587768
8.147000	1.533012
8.148000	1.382272
8.149000	1.225734
8.150000	1.235719
8.151000	1.288865
8.152000	1.387104
8.153000	1.442182
8.154000	1.441215
8.155000	1.494683
8.156000	1.484054
8.157000	1.470526
8.158000	1.512720
8.159000	1.562323
8.160000	1.628030
8.161000	1.691805
8.162000	1.717573
8.163000	1.699535
8.164000	1.667970
8.165000	1.594210
8.166000	1.579072
8.167000	1.653476
8.168000	1.678277
8.169000	1.615147
8.170000	1.492106
8.171000	1.345876
8.172000	1.291442
8.173000	1.513043
8.174000	1.657663
8.175000	1.729168
8.176000	1.667648
8.177000	1.566510
8.178000	1.350707
8.179000	1.229599
8.180000	1.212851
8.181000	1.389036
8.182000	1.664105
8.183000	1.896979
8.184000	2.026461
8.185000	2.110528
8.186000	2.317635
8.187000	2.377867
8.188000	2.358863
8.189000	2.248707
8.190000	1.898912
8.191000	1.684719
8.192000	1.700824
8.193000	1.794231
8.194000	1.732711
8.195000	1.687296
8.196000	1.608383
8.197000	1.424789
8.198000	1.201255
8.199000	1.204154
8.200000	1.364557
8.201000	1.507245
8.202000	1.451845
8.203000	1.179997
8.204000	0.920711
8.205000	0.719402
8.206000	0.697822
8.207000	0.875618
8.208000	1.300460
8.209000	1.835781
8.210000	2.130498
8.211000	2.122768
8.212000	2.069622
8.213000	2.013256
8.214000	1.927900
8.215000	1.838680
8.216000	1.678921
8.217000	1.572308
8.218000	1.641236
8.219000	1.782958
8.220000	1.914372
8.221000	1.944649
8.222000	1.835781
8.223000	1.642525
8.224000	1.425111
8.225000	1.220259
8.226000	1.079503
8.227000	1.063399
8.228000	1.141990
8.229000	1.277269
8.230000	1.340400
8.231000	1.378085
8.232000	1.430586
8.233000	1.445403
8.234000	1.462152
8.235000	1.481799
8.236000	1.504024
8.237000	1.523027
8.238000	1.574240
8.239000	1.627064
8.240000	1.684719
8.241000	1.665715
8.242000	1.624165
8.243000	1.593566
8.244000	1.618045
8.245000	1.750104
8.246000	1.943361
8.247000	2.046753
8.248000	2.041278
8.249000	1.879264
8.250000	1.710809
8.251000	1.550728
8.252000	1.408362
8.253000	1.244416
8.254000	1.184506
8.255000	1.164214
8.256000	1.305292
8.257000	1.531402
8.258000	1.656375
8.259000	1.753647
8.260000	1.841901
8.261000	1.934020
8.262000	2.056738
8.263000	2.144992
8.264000	2.185898
8.265000	2.165284
8.266000	2.081218
8.267000	2.155621
8.268000	2.136296
8.269000	1.822575
8.270000	1.408684
8.271000	1.113968
8.272000	0.930696
8.273000	0.890112
8.274000	0.991572
8.275000	1.113001
8.276000	1.308513
8.277000	1.470204
8.278000	1.499515
8.279000	1.398377
8.280000	1.362624
8.281000	1.370355
8.282000	1.553949
8.283000	1.882163
8.284000	2.153367
8.285000	2.351455
8.286000	2.382054
8.287000	2.092813
8.288000	1.590667
8.289000	1.209307
8.290000	0.975145
8.291000	0.952276
8.292000	1.055346
8.293000	1.276625
8.294000	1.555881
8.295000	1.750104
8.296000	1.719183
8.297000	1.516908
8.298000	1.349096
8.299000	1.262453
8.300000	1.208019
8.301000	1.195457
8.302000	1.238940
8.303000	1.526248
8.304000	2.032903
8.305000	2.406533
8.306000	2.477072
8.307000	2.489312
8.308000	2.449694
8.309000	2.352421
8.310000	2.056416
8.311000	1.375186
8.312000	0.992216
8.313000	0.880127
8.314000	0.865311
8.315000	0.892045
8.316000	1.080792
8.317000	1.318497
8.318000	1.551050
8.319000	1.760411
8.320000	1.874755
8.321000	1.764920
8.322000	1.555559
8.323000	1.449912
8.324000	1.564578
8.325000	1.826118
8.326000	1.953024
8.327000	1.983623
8.328000	1.840613
8.329000	1.616113
8.330000	1.517874
8.331000	1.447335
8.332000	1.335246
8.333000	1.352639
8.334000	1.390969
8.335000	1.348774
8.336000	1.396766
8.337000	1.478256
8.338000	1.466017
8.339000	1.411261
8.340000	1.405463
8.341000	1.425111
8.342000	1.355860
8.343000	1.269861
8.344000	1.265030
8.345000	1.407396
8.346000	1.683753
8.347000	2.063180
8.348000	2.279950
8.349000	2.346302
8.350000	2.301853
8.351000	2.036124
8.352000	1.607416
8.353000	1.475357
8.354000	1.625131
8.355000	1.967196
8.356000	2.223583
8.357000	2.241621
8.358000	1.978791
8.359000	1.579716
8.360000	1.160349
8.361000	0.871753
8.362000	0.809266
8.363000	0.854682
8.364000	0.986096
8.365000	1.310123
8.366000	1.788111
8.367000	2.249995
8.368000	2.399125
8.369000	2.365949
8.370000	2.120835
8.371000	1.566832
8.372000	1.141023
8.373000	0.964516
8.374000	0.927797
8.375000	0.993182
8.376000	1.116544
8.377000	1.428332
8.378000	1.748172
8.379000	1.787467
8.380000	1.595177
8.381000	1.359403
8.382000	1.301749
8.383000	1.405785
8.384000	1.546862
8.385000	1.632540
8.386000	1.651221
8.387000	1.708876
8.388000	1.841257
8.389000	1.754613
8.390000	1.724659
8.391000	1.921459
8.392000	2.076386
8.393000	1.987488
8.394000	1.707910
8.395000	1.519807
8.396000	1.469560
8.397000	1.492428
8.398000	1.450556
8.399000	1.259232
8.400000	1.169046
8.401000	1.206409
8.402000	1.220581
8.403000	1.165181
8.404000	1.124275
8.405000	1.144889
8.406000	1.244738
8.407000	1.453455
8.408000	1.683753
8.409000	1.771684
8.410000	1.774905
8.411000	1.784568
8.412000	1.773295
8.413000	1.673124
8.414000	1.567154
8.415000	1.422534
8.416000	1.283711
8.417000	1.300138
8.418000	1.322041
8.419000	1.217682
8.420000	1.135870
8.421000	1.132971
8.422000	1.215105
8.423000	1.388070
8.424000	1.687940
8.425000	1.902777
8.426000	1.895691
8.427000	1.890537
8.428000	1.864126
8.429000	1.727558
8.430000	1.536878
8.431000	1.416092
8.432000	1.320108
8.433000	1.174521
8.434000	1.096574
8.435000	1.124597
8.436000	1.256977
8.437000	1.658629
8.438000	2.219718
8.439000	2.431013
8.440000	2.468698
8.441000	2.470630
8.442000	2.429724
8.443000	2.303463
8.444000	2.076708
8.445000	1.590989
8.446000	1.220903
8.447000	1.146499
8.448000	1.278558
8.449000	1.438317
8.450000	1.577461
8.451000	1.846733
8.452000	2.072521
8.453000	2.098611
8.454000	2.053195
8.455000	1.998761
8.456000	1.853497
8.457000	1.853819
8.458000	1.882485
8.459000	1.905998
8.460000	1.963975
8.461000	1.913406
8.462000	1.811624
8.463000	1.670869
8.464000	1.526571
8.465000	1.286288
8.466000	1.069196
8.467000	0.967737
8.468000	0.942291
8.469000	0.999302
8.470000	1.120409
8.471000	1.202544
8.472000	1.265030
8.473000	1.339112
8.474000	1.453133
8.475000	1.614824
8.476000	1.760411
8.477000	1.839002
8.478000	1.857040
8.479000	1.856073
8.480000	1.806471
8.481000	1.771684
8.482000	1.462152
8.483000	1.205120
8.484000	1.116866
8.485000	1.092387
8.486000	1.088844
8.487000	1.156162
8.488000	1.251180
8.489000	1.357471
8.490000	1.492751
8.491000	1.578750
8.492000	1.634150
8.493000	1.612570
8.494000	1.419635
8.495000	1.305614
8.496000	1.335891
8.497000	1.408684
8.498000	1.557814
8.499000	1.762344
8.500000	2.024851
8.501000	2.263845
8.502000	2.401058
8.503000	2.470630
8.504000	2.477394
8.505000	2.404279
8.506000	2.211022
8.507000	1.855429
8.508000	1.526248
8.509000	1.496616
8.510000	1.515619
8.511000	1.555237
8.512000	1.800029
8.513000	1.849953
8.514000	1.592600
8.515000	1.308835
8.516000	1.200933
8.517000	1.169368
8.518000	1.215749
8.519000	1.190948
8.520000	1.129428
8.521000	1.188693
8.522000	1.257944
8.523000	1.272438
8.524000	1.240873
8.525000	1.287254
8.526000	1.489852
8.527000	1.719827
8.528000	2.023240
8.529000	2.105697
8.530000	2.017443
8.531000	1.948192
8.532000	1.796808
8.533000	1.731423
8.534000	1.702434
8.535000	1.824186
8.536000	1.860583
8.537000	1.735288
8.538000	1.508211
8.539000	1.387104
8.540000	1.342332
8.541000	1.198034
8.542000	1.019916
8.543000	0.977400
8.544000	1.022815
8.545000	1.094964
8.546000	1.238296
8.547000	1.335568
8.548000	1.349096
8.549000	1.313022
8.550000	1.241839
8.551000	1.252146
8.552000	1.359726
8.553000	1.468916
8.554000	1.501125
8.555000	1.512720
8.556000	1.602263
8.557000	1.830306
8.558000	2.002304
8.559000	1.987810
8.560000	1.898268
8.561000	1.859294
8.562000	1.849309
8.563000	1.824186
8.564000	1.887961
8.565000	1.946904
8.566000	1.835459
8.567000	1.592922
8.568000	1.366167
8.569000	1.198356
8.570000	1.092065
8.571000	1.139413
8.572000	1.277592
8.573000	1.494683
8.574000	1.735610
8.575000	1.929511
8.576000	1.862515
8.577000	1.737542
8.578000	1.745917
8.579000	1.904387
8.580000	1.951413
8.581000	1.847377
8.582000	1.713707
8.583000	1.725303
8.584000	1.658951
8.585000	1.502091
8.586000	1.584225
8.587000	1.942073
8.588000	2.383665
8.589000	2.468054
8.590000	2.401058
8.591000	2.074454
8.592000	1.564900
8.593000	1.072739
8.594000	0.797993
8.595000	0.717470
8.596000	0.758375
8.597000	0.871108
8.598000	0.969347
8.599000	0.967737
8.600000	0.989317
8.601000	1.087556
8.602000	1.359081
8.603000	1.765565
8.604000	2.185898
8.605000	2.355320
8.606000	2.339216
8.607000	2.233246
8.608000	2.222939
8.609000	2.165284
8.610000	1.977181
8.611000	1.868313
8.612000	1.772007
8.613000	1.706621
8.614000	1.614502
8.615000	1.524960
8.616000	1.540421
8.617000	1.478578
8.618000	1.413193
8.619000	1.238296
8.620000	1.059212
8.621000	1.024103
8.622000	1.106881
8.623000	1.354250
8.624000	1.724981
8.625000	1.837070
8.626000	1.801639
8.627000	1.674734
8.628000	1.525926
8.629000	1.270183
8.630000	1.182574
8.631000	1.160349
8.632000	1.268251
8.633000	1.547829
8.634000	1.814845
8.635000	1.947226
8.636000	1.864126
8.637000	1.686974
8.638000	1.576495
8.639000	1.465373
8.640000	1.455710
8.641000	1.556847
8.642000	1.632862
8.643000	1.757834
8.644000	1.835781
8.645000	1.821609
8.646000	1.766209
8.647000	1.731745
8.648000	1.509177
8.649000	1.194813
8.650000	1.090455
8.651000	1.074028
8.652000	1.124275
8.653000	1.296917
8.654000	1.658307
8.655000	2.015510
8.656000	2.139839
8.657000	2.137906
8.658000	2.087659
8.659000	2.041922
8.660000	1.800351
8.661000	1.493395
8.662000	1.236041
8.663000	1.118477
8.664000	1.242805
8.665000	1.749138
8.666000	2.310549
8.667000	2.462900
8.668000	2.497686
8.669000	2.466443
8.670000	2.179134
8.671000	1.627064
8.672000	1.220903
8.673000	0.945512
8.674000	0.831813
8.675000	0.846951
8.676000	0.929085
8.677000	1.007032
8.678000	1.110747
8.679000	1.131039
8.680000	1.097863
8.681000	1.126207
8.682000	1.281457
8.683000	1.543642
8.684000	1.814523
8.685000	2.049330
8.686000	2.121479
8.687000	2.114393
8.688000	1.991353
8.689000	1.774905
8.690000	1.510144
8.691000	1.317853
8.692000	1.257944
8.693000	1.293374
8.694000	1.433807
8.695000	1.578106
8.696000	1.640270
8.697000	1.555559
8.698000	1.466339
8.699000	1.398377
8.700000	1.407396
8.701000	1.500159
8.702000	1.751715
8.703000	2.080573
8.704000	2.331485
8.705000	2.397837
8.706000	2.383021
8.707000	2.170760
8.708000	1.720471
8.709000	1.223158
8.710000	0.885281
8.711000	0.779956
8.712000	0.793806
8.713000	0.985452
8.714000	1.266962
8.715000	1.538166
8.716000	1.711131
8.717000	1.788111
8.718000	1.667648
8.719000	1.523672
8.720000	1.542031
8.721000	1.639948
8.722000	1.731101
8.723000	1.908253
8.724000	1.937563
8.725000	1.706943
8.726000	1.505312
8.727000	1.405785
8.728000	1.292086
8.729000	1.314632
8.730000	1.414160
8.731000	1.485020
8.732000	1.599686
8.733000	1.871534
8.734000	2.055450
8.735000	2.056416
8.736000	2.085727
8.737000	2.069300
8.738000	1.876043
8.739000	1.590023
8.740000	1.397411
8.741000	1.308190
8.742000	1.334280
8.743000	1.374220
8.744000	1.364557
8.745000	1.345876
8.746000	1.377763
8.747000	1.436706
8.748000	1.523027
8.749000	1.533657
8.750000	1.603229
8.751000	1.765243
8.752000	1.991675
8.753000	2.130498
8.754000	2.079285
8.755000	1.879586
8.756000	1.695992
8.757000	1.522705
8.758000	1.313344
8.759000	1.230888
8.760000	1.185795
8.761000	1.195780
8.762000	1.342655
8.763000	1.537844
8.764000	1.732711
8.765000	1.870245
8.766000	1.883451
8.767000	1.656375
8.768000	1.511110
8.769000	1.349419
8.770000	1.323651
8.771000	1.476002
8.772000	1.606128
8.773000	1.575207
8.774000	1.566188
8.775000	1.669258
8.776000	1.645101
8.777000	1.451845
8.778000	1.345553
8.779000	1.295307
8.780000	1.302071
8.781000	1.466661
8.782000	1.592922
8.783000	1.637371
8.784000	1.805827
8.785000	1.957211
8.786000	1.951413
8.787000	1.877976
8.788000	1.814201
8.789000	1.672479
8.790000	1.488241
8.791000	1.385815
8.792000	1.403530
8.793000	1.446047
8.794000	1.436706
8.795000	1.422212
8.796000	1.336535
8.797000	1.254723
8.798000	1.312056
8.799000	1.399343
8.800000	1.363913
8.801000	1.332348
8.802000	1.313666
8.803000	1.310767
8.804000	1.381306
8.805000	1.485342
8.806000	1.549117
8.807000	1.606450
8.808000	1.674090
8.809000	1.623843
8.810000	1.493395
8.811000	1.399021
8.812000	1.440571
8.813000	1.626098
8.814000	1.763310
8.815000	1.793909
8.816000	1.788755
8.817000	1.705977
8.818000	1.609027
8.819000	1.595821
8.820000	1.866058
8.821000	2.195239
8.822000	2.339216
8.823000	2.283171
8.824000	2.149824
8.825000	1.886672
8.826000	1.513687
8.827000	1.252146
8.828000	1.166469
8.829000	1.194813
8.830000	1.392257
8.831000	1.576495
8.832000	1.622877
8.833000	1.545252
8.834000	1.395800
8.835000	1.279202
8.836000	1.230566
8.837000	1.227667
8.838000	1.275659
8.839000	1.435096
8.840000	1.583259
8.841000	1.586480
8.842000	1.580360
8.843000	1.632218
8.844000	1.832882
8.845000	2.256759
8.846000	2.421028
8.847000	2.453881
8.848000	2.412331
8.849000	2.194917
8.850000	1.680854
8.851000	1.236363
8.852000	0.897842
8.853000	0.774802
8.854000	0.773836
8.855000	0.895910
8.856000	1.073062
8.857000	1.272760
8.858000	1.376797
8.859000	1.420601
8.860000	1.504990
8.861000	1.620622
8.862000	1.689550
8.863000	1.737542
8.864000	1.841901
8.865000	2.047398
8.866000	2.182033
8.867000	2.244842
8.868000	2.113749
8.869000	1.852530
8.870000	1.627064
8.871000	1.440893
8.872000	1.268895
8.873000	1.095930
8.874000	1.011219
8.875000	1.078215
8.876000	1.329449
8.877000	1.419313
8.878000	1.412549
8.879000	1.344587
8.880000	1.186761
8.881000	1.058889
8.882000	1.049227
8.883000	1.242483
8.884000	1.454099
8.885000	1.670225
8.886000	1.874111
8.887000	1.934020
8.888000	1.957211
8.889000	1.905998
8.890000	1.850276
8.891000	1.792943
8.892000	1.715318
8.893000	1.642202
8.894000	1.688262
8.895000	1.736254
8.896000	1.756868
8.897000	1.756546
8.898000	1.792943
8.899000	1.867347
8.900000	1.898912
8.901000	1.851886
8.902000	1.757190
8.903000	1.653476
8.904000	1.509499
8.905000	1.418669
8.906000	1.347164
8.907000	1.317209
8.908000	1.410616
8.909000	1.521417
8.910000	1.527215
8.911000	1.557492
8.912000	1.618045
8.913000	1.699213
8.914000	1.803894
8.915000	1.845766
8.916000	1.818710
8.917000	1.751393
8.918000	1.673124
8.919000	1.494039
8.920000	1.346198
8.921000	1.241839
8.922000	1.218970
8.923000	1.338145
8.924000	1.476968
8.925000	1.588735
8.926000	1.567477
8.927000	1.493717
8.928000	1.403530
8.929000	1.288543
8.930000	1.189338
8.931000	1.172911
8.932000	1.103661
8.933000	1.137480
8.934000	1.357793
8.935000	1.604195
8.936000	1.725303
8.937000	1.745917
8.938000	1.700179
8.939000	1.565866
8.940000	1.502091
8.941000	1.563289
8.942000	1.590989
8.943000	1.666682
8.944000	1.714996
8.945000	1.685041
8.946000	1.798418
8.947000	2.111817
8.948000	2.278984
8.949000	2.351777
8.950000	2.400092
8.951000	2.378189
8.952000	2.268999
8.953000	2.004881
8.954000	1.582293
8.955000	1.281779
8.956000	1.304970
8.957000	1.470848
8.958000	1.577461
8.959000	1.624487
8.960000	1.718217
8.961000	1.682142
8.962000	1.525604
8.963000	1.384849
8.964000	1.244738
8.965000	1.068230
8.966000	0.950022
8.967000	0.901063
8.968000	0.888502
8.969000	0.973534
8.970000	1.210918
8.971000	1.524316
8.972000	1.821287
8.973000	2.018087
8.974000	2.131464
8.975000	2.138228
8.976000	2.033547
8.977000	1.880875
8.978000	1.662494
8.979000	1.478578
8.980000	1.404175
8.981000	1.430908
8.982000	1.448946
8.983000	1.514653
8.984000	1.649611
8.985000	1.746561
8.986000	1.738509
8.987000	1.584870
8.988000	1.456676
8.989000	1.382594
8.990000	1.395478
8.991000	1.368422
8.992000	1.321074
8.993000	1.307546
8.994000	1.321718
8.995000	1.388392
8.996000	1.448302
8.997000	1.487275
8.998000	1.575529
8.999000	1.753003
9.000000	1.932732
9.001000	1.975570
9.002000	1.855751
9.003000	1.574240
9.004000	1.340400
9.005000	1.255045
9.006000	1.234753
9.007000	1.264708
9.008000	1.369066
9.009000	1.472459
9.010000	1.569409
9.011000	1.667004
9.012000	1.728524
9.013000	1.759445
9.014000	1.731745
9.015000	1.635438
9.016000	1.503058
9.017000	1.611603
9.018000	1.810336
9.019000	1.989743
9.020000	2.087337
9.021000	2.031293
9.022000	1.826763
9.023000	1.575851
9.024000	1.281135
9.025000	1.135548
9.026000	1.097219
9.027000	1.276303
9.028000	1.514009
9.029000	1.661206
9.030000	1.580682
9.031000	1.521739
9.032000	1.463762
9.033000	1.324295
9.034000	1.236363
9.035000	1.392257
9.036000	1.583581
9.037000	1.650577
9.038000	1.615147
9.039000	1.621588
9.040000	1.547507
9.041000	1.517552
9.042000	1.522061
9.043000	1.531402
9.044000	1.601619
9.045000	1.618045
9.046000	1.585836
9.047000	1.547829
9.048000	1.556525
9.049000	1.521417
9.050000	1.507245
9.051000	1.568443
9.052000	1.616113
9.053000	1.680532
9.054000	1.772973
9.055000	1.846410
9.056000	1.918238
9.057000	1.983301
9.058000	2.007458
9.059000	1.979436
9.060000	1.861549
9.061000	1.665071
9.062000	1.529469
9.063000	1.468271
9.064000	1.416414
9.065000	1.315921
9.066000	1.260520
9.067000	1.291764
9.068000	1.367134
9.069000	1.440893
9.070000	1.529469
9.071000	1.557814
9.072000	1.637049
9.073000	1.687618
9.074000	1.563611
9.075000	1.454099
9.076000	1.498548
9.077000	1.621266
9.078000	1.749782
9.079000	1.826441
9.080000	1.720471
9.081000	1.608705
9.082000	1.621910
9.083000	1.650577
9.084000	1.666682
9.085000	1.546862
9.086000	1.412871
9.087000	1.375508
9.088000	1.454099
9.089000	1.486953
9.090000	1.453455
9.091000	1.390002
9.092000	1.366490
9.093000	1.364235
9.094000	1.369711
9.095000	1.354250
9.096000	1.310123
9.097000	1.278236
9.098000	1.389036
9.099000	1.598075
9.100000	1.863804
9.101000	2.061892
9.102000	2.163996
9.103000	2.134685
9.104000	1.908575
9.105000	1.640592
9.106000	1.366812
9.107000	1.207375
9.108000	1.196102
9.109000	1.340722
9.110000	1.550083
9.111000	1.711131
9.112000	1.697925
9.113000	1.497904
9.114000	1.294018
9.115000	1.195135
9.116000	1.182252
9.117000	1.280812
9.118000	1.513365
9.119000	1.870245
9.120000	2.120513
9.121000	2.185898
9.122000	2.200715
9.123000	2.166895
9.124000	2.255471
9.125000	2.389140
9.126000	2.431335
9.127000	2.425537
9.128000	2.402990
9.129000	2.326976
9.130000	2.091847
9.131000	1.617723
9.132000	1.146499
9.133000	0.925864
9.134000	0.870142
9.135000	0.876584
9.136000	0.894299
9.137000	0.970636
9.138000	1.082402
9.139000	1.377119
9.140000	1.707266
9.141000	2.016799
9.142000	2.303463
9.143000	2.386564
9.144000	2.361440
9.145000	2.185254
9.146000	1.867669
9.147000	1.630285
9.148000	1.430264
9.149000	1.290797
9.150000	1.190304
9.151000	1.090455
9.152000	1.112035
9.153000	1.119443
9.154000	1.165825
9.155000	1.257622
9.156000	1.381628
9.157000	1.483410
9.158000	1.476324
9.159000	1.438317
9.160000	1.487275
9.161000	1.484054
9.162000	1.394834
9.163000	1.298850
9.164000	1.243127
9.165000	1.255045
9.166000	1.333636
9.167000	1.552660
9.168000	1.764276
9.169000	1.835459
9.170000	1.671513
9.171000	1.584225
9.172000	1.593244
9.173000	1.526893
9.174000	1.498870
9.175000	1.536878
9.176000	1.667648
9.177000	1.773295
9.178000	1.851564
9.179000	1.991675
9.180000	2.226160
9.181000	2.377867
9.182000	2.397837
9.183000	2.304429
9.184000	1.952702
9.185000	1.549117
9.186000	1.347808
9.187000	1.252468
9.188000	1.195780
9.189000	1.146821
9.190000	1.166469
9.191000	1.207375
9.192000	1.260520
9.193000	1.382594
9.194000	1.700179
9.195000	1.951091
9.196000	1.941750
9.197000	1.897946
9.198000	1.889249
9.199000	1.937563
9.200000	1.952058
9.201000	1.902133
9.202000	1.790044
9.203000	1.692449
9.204000	1.657663
9.205000	1.499192
9.206000	1.341044
9.207000	1.213173
9.208000	1.125563
9.209000	1.089488
9.210000	1.102050
9.211000	1.147787
9.212000	1.317853
9.213000	1.455066
9.214000	1.475357
9.215000	1.432519
9.216000	1.404497
9.217000	1.481155
9.218000	1.639626
9.219000	1.720471
9.220000	1.688584
9.221000	1.627064
9.222000	1.595499
9.223000	1.582937
9.224000	1.488885
9.225000	1.479223
9.226000	1.357471
9.227000	1.332348
9.228000	1.470526
9.229000	1.552982
9.230000	1.529791
9.231000	1.496294
9.232000	1.396444
9.233000	1.416092
9.234000	1.496616
9.235000	1.529147
9.236000	1.791976
9.237000	2.235179
9.238000	2.382376
9.239000	2.419095
9.240000	2.389462
9.241000	2.187509
9.242000	1.878942
9.243000	1.532368
9.244000	1.258910
9.245000	1.169690
9.246000	1.258266
9.247000	1.559102
9.248000	2.006492
9.249000	2.333418
9.250000	2.466121
9.251000	2.495754
9.252000	2.494465
9.253000	2.476750
9.254000	2.474496
9.255000	2.484803
9.256000	2.492533
9.257000	2.494465
9.258000	2.493177
9.259000	2.493821
9.260000	2.495110
9.261000	2.495110
9.262000	2.495432
9.263000	2.494143
9.264000	2.495754
9.265000	2.497364
9.266000	2.498975
9.267000	2.496720
9.268000	2.492533
9.269000	2.465799
9.270000	2.433589
9.271000	2.407178
9.272000	2.422316
9.273000	2.462900
9.274000	2.487379
9.275000	2.490600
9.276000	2.493821
9.277000	2.476750
9.278000	2.421350
9.279000	2.316669
9.280000	2.141449
9.281000	2.023563
9.282000	2.009390
9.283000	2.123090
9.284000	2.283171
9.285000	2.389462
9.286000	2.420061
9.287000	2.437777
9.288000	2.427792
9.289000	2.407500
9.290000	2.409110
9.291000	2.396226
9.292000	2.328909
9.293000	2.206512
9.294000	1.901167
9.295000	1.528825
9.296000	1.331703
9.297000	1.339112
9.298000	1.485020
9.299000	1.619334
9.300000	1.758479
9.301000	1.966552
9.302000	2.157232
9.303000	2.277695
9.304000	2.312160
9.305000	2.280594
9.306000	2.126633
9.307000	1.892470
9.308000	1.686329
9.309000	1.553304
9.310000	1.554271
9.311000	1.652832
9.312000	1.736898
9.313000	1.776516
9.314000	1.742374
9.315000	1.718217
9.316000	1.753003
9.317000	1.840613
9.318000	1.873466
9.319000	1.883451
9.320000	1.864126
9.321000	1.752359
9.322000	1.710809
9.323000	1.651543
9.324000	1.592600
9.325000	1.610315
9.326000	1.654120
9.327000	1.802283
9.328000	2.004881
9.329000	2.270931
9.330000	2.406211
9.331000	2.419417
9.332000	2.359508
9.333000	2.071233
9.334000	1.670225
9.335000	1.346198
9.336000	1.162926
9.337000	1.077893
9.338000	1.055991
9.339000	1.142312
9.340000	1.240873
9.341000	1.330737
9.342000	1.400309
9.343000	1.453777
9.344000	1.451200
9.345000	1.448946
9.346000	1.411583
9.347000	1.361014
9.348000	1.312056
9.349000	1.289187
9.350000	1.392579
9.351000	1.584225
9.352000	1.757512
9.353000	1.948837
9.354000	2.052229
9.355000	2.060603
9.356000	2.004237
9.357000	1.938852
9.358000	1.877976
9.359000	1.758801
9.360000	1.635438
9.361000	1.541709
9.362000	1.580682
9.363000	1.685363
9.364000	1.669258
9.365000	1.606450
9.366000	1.562323
9.367000	1.524316
9.368000	1.505312
9.369000	1.486953
9.370000	1.463118
9.371000	1.453777
9.372000	1.497904
9.373000	1.587768
9.374000	1.696636
9.375000	1.734966
9.376000	1.790688
9.377000	1.921459
9.378000	1.964619
9.379000	1.955601
9.380000	1.992964
9.381000	1.997151
9.382000	1.917915
9.383000	1.803894
9.384000	1.792943
9.385000	1.792943
9.386000	1.728846
9.387000	1.607094
9.388000	1.505956
9.389000	1.352962
9.390000	1.216716
9.391000	1.103983
9.392000	1.096897
9.393000	1.231532
9.394000	1.425755
9.395000	1.560390
9.396000	1.634794
9.397000	1.726913
9.398000	1.790366
9.399000	1.890860
9.400000	1.876687
9.401000	1.873144
9.402000	1.742374
9.403000	1.578428
9.404000	1.509822
9.405000	1.377441
9.406000	1.306258
9.407000	1.305292
9.408000	1.374220
9.409000	1.419635
9.410000	1.374864
9.411000	1.339434
9.412000	1.383238
9.413000	1.500481
9.414000	1.649289
9.415000	1.779093
9.416000	1.894080
9.417000	2.121157
9.418000	2.287036
9.419000	2.336639
9.420000	2.280916
9.421000	2.030971
9.422000	1.540421
9.423000	1.150686
9.424000	0.966770
9.425000	0.909438
9.426000	1.013796
9.427000	1.271794
9.428000	1.449268
9.429000	1.585836
9.430000	1.566832
9.431000	1.527859
9.432000	1.549439
9.433000	1.601619
9.434000	1.545574
9.435000	1.508855
9.436000	1.613858
9.437000	1.841257
9.438000	2.020986
9.439000	1.932732
9.440000	1.809047
9.441000	1.837714
9.442000	1.818388
9.443000	1.749138
9.444000	1.593566
9.445000	1.463118
9.446000	1.365201
9.447000	1.226378
9.448000	1.110102
9.449000	1.166147
9.450000	1.323651
9.451000	1.514009
9.452000	1.720794
9.453000	1.791976
9.454000	1.969451
9.455000	2.009390
9.456000	1.902455
9.457000	1.740441
9.458000	1.630607
9.459000	1.655086
9.460000	1.803250
9.461000	1.951091
9.462000	1.982979
9.463000	1.943361
9.464000	1.908575
9.465000	1.925324
9.466000	1.861549
9.467000	1.806471
9.468000	1.601941
9.469000	1.348130
9.470000	1.323973
9.471000	1.453777
9.472000	1.542997
9.473000	1.420601
9.474000	1.399665
9.475000	1.359081
9.476000	1.295629
9.477000	1.269217
9.478000	1.237330
9.479000	1.128462
9.480000	1.047616
9.481000	1.042463
9.482000	1.065653
9.483000	1.152619
9.484000	1.361658
9.485000	1.555237
9.486000	1.662816
9.487000	1.715962
9.488000	1.698891
9.489000	1.726913
9.490000	1.826441
9.491000	1.939174
9.492000	1.986844
9.493000	1.932088
9.494000	1.831916
9.495000	1.683108
9.496000	1.502413
9.497000	1.381306
9.498000	1.378085
9.499000	1.361336
9.500000	1.393868
9.501000	1.410939
9.502000	1.351673
9.503000	1.264064
9.504000	1.258266
9.505000	1.373576
9.506000	1.469238
9.507000	1.490818
9.508000	1.622555
9.509000	1.827407
9.510000	1.820321
9.511000	1.785212
9.512000	1.721116
9.513000	1.716284
9.514000	1.796164
9.515000	1.969773
9.516000	2.176880
9.517000	2.249029
9.518000	2.193951
9.519000	2.023240
9.520000	1.812590
9.521000	1.658951
9.522000	1.533657
9.523000	1.382916
9.524000	1.173555
9.525000	1.169046
9.526000	1.327838
9.527000	1.525604
9.528000	1.647356
9.529000	1.585514
9.530000	1.452167
9.531000	1.361980
9.532000	1.414160
9.533000	1.465695
9.534000	1.507567
9.535000	1.633184
9.536000	1.749460
9.537000	1.741408
9.538000	1.673124
9.539000	1.581971
9.540000	1.441538
9.541000	1.260520
9.542000	1.198356
9.543000	1.213495
9.544000	1.249569
9.545000	1.416092
9.546000	1.592922
9.547000	1.759123
9.548000	1.855751
9.549000	1.865414
9.550000	1.829662
9.551000	1.763954
9.552000	1.573596
9.553000	1.456676
9.554000	1.490496
9.555000	1.533012
9.556000	1.549761
9.557000	1.513687
9.558000	1.461185
9.559000	1.367456
9.560000	1.237974
9.561000	1.153907
9.562000	1.210596
9.563000	1.303681
9.564000	1.359726
9.565000	1.446047
9.566000	1.488885
9.567000	1.478578
9.568000	1.441538
9.569000	1.413193
9.570000	1.411261
9.571000	1.441215
9.572000	1.439283
9.573000	1.483732
9.574000	1.691161
9.575000	1.859616
9.576000	1.854141
9.577000	1.806149
9.578000	1.787145
9.579000	1.883773
9.580000	1.957211
9.581000	2.026461
9.582000	2.073165
9.583000	1.979758
9.584000	1.842223
9.585000	1.758156
9.586000	1.684719
9.587000	1.616435
9.588000	1.495327
9.589000	1.430264
9.590000	1.285000
9.591000	1.202866
9.592000	1.249569
9.593000	1.514975
9.594000	1.748816
9.595000	1.903421
9.596000	1.962042
9.597000	1.869601
9.598000	1.782314
9.599000	1.688262
9.600000	1.552338
9.601000	1.377441
9.602000	1.385815
9.603000	1.387104
9.604000	1.344587
9.605000	1.314310
9.606000	1.282745
9.607000	1.176454
9.608000	1.110425
9.609000	1.067908
9.610000	1.084335
9.611000	1.132005
9.612000	1.191270
9.613000	1.279202
9.614000	1.488885
9.615000	1.839324
9.616000	2.134363
9.617000	2.324399
9.618000	2.416841
9.619000	2.452271
9.620000	2.434234
9.621000	2.345657
9.622000	2.094423
9.623000	1.836426
9.624000	1.550406
9.625000	1.237652
9.626000	1.171300
9.627000	1.143600
9.628000	1.101406
9.629000	1.103016
9.630000	1.178064
9.631000	1.256011
9.632000	1.307224
9.633000	1.406107
9.634000	1.505312
9.635000	1.588735
9.636000	1.669903
9.637000	1.737542
9.638000	1.767819
9.639000	1.761700
9.640000	1.761700
9.641000	1.761055
9.642000	1.755902
9.643000	1.921781
9.644000	2.106341
9.645000	2.159487
9.646000	2.154977
9.647000	2.116648
9.648000	1.923069
9.649000	1.652187
9.650000	1.391935
9.651000	1.195780
9.652000	1.112035
9.653000	1.114934
9.654000	1.119121
9.655000	1.197712
9.656000	1.327838
9.657000	1.398377
9.658000	1.453133
9.659000	1.458931
9.660000	1.423822
9.661000	1.393545
9.662000	1.378085
9.663000	1.422212
9.664000	1.449268
9.665000	1.523672
9.666000	1.623199
9.667000	1.737542
9.668000	1.790366
9.669000	1.837714
9.670000	1.799385
9.671000	1.769108
9.672000	1.668292
9.673000	1.663461
9.674000	1.669258
9.675000	1.539132
9.676000	1.500159
9.677000	1.567477
9.678000	1.603229
9.679000	1.622233
9.680000	1.609993
9.681000	1.581649
9.682000	1.586480
9.683000	1.523994
9.684000	1.480833
9.685000	1.432841
9.686000	1.247959
9.687000	1.170012
9.688000	1.108170
9.689000	1.093998
9.690000	1.170334
9.691000	1.447013
9.692000	1.780059
9.693000	2.121157
9.694000	2.285748
9.695000	2.260624
9.696000	2.105375
9.697000	1.796164
9.698000	1.494039
9.699000	1.324939
9.700000	1.259554
9.701000	1.334924
9.702000	1.420924
9.703000	1.429298
9.704000	1.445081
9.705000	1.469238
9.706000	1.542997
9.707000	1.636727
9.708000	1.644135
9.709000	1.684075
9.710000	1.809692
9.711000	1.871212
9.712000	1.874755
9.713000	1.782314
9.714000	1.655730
9.715000	1.542031
9.716000	1.449590
9.717000	1.456998
9.718000	1.571342
9.719000	1.712419
9.720000	1.902455
9.721000	2.051585
9.722000	2.064146
9.723000	1.962687
9.724000	1.831594
9.725000	1.616757
9.726000	1.364557
9.727000	1.222513
9.728000	1.102372
9.729000	1.049871
9.730000	1.065653
9.731000	1.094320
9.732000	1.274693
9.733000	1.485020
9.734000	1.574885
9.735000	1.629319
9.736000	1.657019
9.737000	1.643491
9.738000	1.640592
9.739000	1.676344
9.740000	1.666360
9.741000	1.684719
9.742000	1.677633
9.743000	1.556525
9.744000	1.469882
9.745000	1.469560
9.746000	1.508211
9.747000	1.497582
9.748000	1.558136
9.749000	1.663783
9.750000	1.712419
9.751000	1.666360
9.752000	1.635438
9.753000	1.660884
9.754000	1.629963
9.755000	1.525926
9.756000	1.414160
9.757000	1.383883
9.758000	1.354250
9.759000	1.370355
9.760000	1.381306
9.761000	1.403208
9.762000	1.436062
9.763000	1.411583
9.764000	1.303359
9.765000	1.226701
9.766000	1.215105
9.767000	1.299172
9.768000	1.438639
9.769000	1.571986
9.770000	1.653798
9.771000	1.660884
9.772000	1.634794
9.773000	1.611926
9.774000	1.576495
9.775000	1.524316
9.776000	1.445725
9.777000	1.385171
9.778000	1.375830
9.779000	1.442826
9.780000	1.531402
9.781000	1.657019
9.782000	1.795519
9.783000	1.805504
9.784000	1.773617
9.785000	1.702434
9.786000	1.656053
9.787000	1.521417
9.788000	1.447657
9.789000	1.498226
9.790000	1.555237
9.791000	1.551050
9.792000	1.495649
9.793000	1.522383
9.794000	1.572952
9.795000	1.585514
9.796000	1.798418
9.797000	1.932732
9.798000	1.969451
9.799000	1.966552
9.800000	1.886028
9.801000	1.800673
9.802000	1.693415
9.803000	1.655730
9.804000	1.614824
9.805000	1.721116
9.806000	1.884740
9.807000	1.893436
9.808000	1.868957
9.809000	1.887316
9.810000	1.890860
9.811000	1.743984
9.812000	1.552660
9.813000	1.326228
9.814000	1.191270
9.815000	1.255367
9.816000	1.455710
9.817000	1.678277
9.818000	1.970739
9.819000	2.080895
9.820000	2.100543
9.821000	2.089592
9.822000	2.006169
9.823000	1.814523
9.824000	1.497260
9.825000	1.291119
9.826000	1.170656
9.827000	1.063721
9.828000	0.964838
9.829000	0.896554
9.830000	0.922321
9.831000	1.038275
9.832000	1.161960
9.833000	1.354572
9.834000	1.575851
9.835000	1.733677
9.836000	1.808403
9.837000	1.753325
9.838000	1.658951
9.839000	1.538488
9.840000	1.451845
9.841000	1.356183
9.842000	1.335568
9.843000	1.373576
9.844000	1.372609
9.845000	1.423178
9.846000	1.544286
9.847000	1.600008
9.848000	1.610959
9.849000	1.606772
9.850000	1.638659
9.851000	1.671513
9.852000	1.681498
9.853000	1.673124
9.854000	1.651221
9.855000	1.615791
9.856000	1.565544
9.857000	1.587446
9.858000	1.595821
9.859000	1.533012
9.860000	1.469238
9.861000	1.464406
9.862000	1.524316
9.863000	1.622877
9.864000	1.735610
9.865000	1.809370
9.866000	1.810980
9.867000	1.746239
9.868000	1.661850
9.869000	1.546540
9.870000	1.485665
9.871000	1.504024
9.872000	1.521417
9.873000	1.533979
9.874000	1.522383
9.875000	1.444436
9.876000	1.408684
9.877000	1.468916
9.878000	1.501447
9.879000	1.498870
9.880000	1.470204
9.881000	1.451522
9.882000	1.435096
9.883000	1.406107
9.884000	1.431875
9.885000	1.440893
9.886000	1.432197
9.887000	1.427365
9.888000	1.433485
9.889000	1.452811
9.890000	1.461507
9.891000	1.457642
9.892000	1.487275
9.893000	1.616757
9.894000	1.808081
9.895000	1.907286
9.896000	1.962365
9.897000	1.983301
9.898000	1.987488
9.899000	1.978147
9.900000	1.929189
9.901000	1.860583
9.902000	1.760411
9.903000	1.621266
9.904000	1.463440
9.905000	1.393545
9.906000	1.362624
9.907000	1.379373
9.908000	1.451522
9.909000	1.580360
9.910000	1.720149
9.911000	1.816456
9.912000	1.821609
9.913000	1.733355
9.914000	1.614824
9.915000	1.535267
9.916000	1.479867
9.917000	1.415126
9.918000	1.385171
9.919000	1.379695
9.920000	1.373898
9.921000	1.395478
9.922000	1.461830
9.923000	1.556847
9.924000	1.617723
9.925000	1.649289
9.926000	1.614502
9.927000	1.554593
9.928000	1.474391
9.929000	1.395478
9.930000	1.389358
9.931000	1.466661
9.932000	1.534623
9.933000	1.545252
9.934000	1.556847
9.935000	1.542031
9.936000	1.478578
9.937000	1.416736
9.938000	1.400309
9.939000	1.455066
9.940000	1.501769
9.941000	1.536878
9.942000	1.576173
9.943000	1.622877
9.944000	1.657663
9.945000	1.645745
9.946000	1.619012
9.947000	1.605162
9.948000	1.574885
9.949000	1.504668
9.950000	1.428010
9.951000	1.334924
9.952000	1.288221
9.953000	1.334280
9.954000	1.409972
9.955000	1.496938
9.956000	1.649289
9.957000	1.758156
9.958000	1.867669
9.959000	1.999083
9.960000	2.038701
9.961000	2.104086
9.962000	2.195561
9.963000	2.207479
9.964000	2.105375
9.965000	1.901167
9.966000	1.608383
9.967000	1.342655
9.968000	1.195780
9.969000	1.124919
9.970000	1.256977
9.971000	1.415126
9.972000	1.503380
9.973000	1.600330
9.974000	1.654764
9.975000	1.627064
9.976000	1.583259
9.977000	1.550728
9.978000	1.509822
9.979000	1.374220
9.980000	1.362624
9.981000	1.513365
9.982000	1.778771
9.983000	1.878942
9.984000	1.896979
9.985000	1.907286
9.986000	1.909863
9.987000	1.905676
9.988000	1.809047
9.989000	1.623199
9.990000	1.449912
9.991000	1.428010
9.992000	1.546862
9.993000	1.692127
9.994000	1.728846
9.995000	1.709198
9.996000	1.671835
9.997000	1.576817
9.998000	1.445403
9.999000	1.314632

