LabVIEW Measurement	
Writer_Version	2
Reader_Version	2
Separator	Tab
Decimal_Separator	.
Multi_Headings	Yes
X_Columns	One
Time_Pref	Relative
Operator	bjl40
Description	Time Domain Data
Date	1903/12/31
Time	19:00:00
***End_of_Header***	
	
Channels	1	
Samples	10000	
Date	1903/12/31	
Time	19:00:00	
X_Dimension	Time	
X0	0.0000000000000000E+0	
Delta_X	0.000500	
***End_of_Header***		
X_Value	Untitled	Comment
0.000000	-0.054784	Tare Values:0.000000, 0.000000, 0.000000, 0.000000\0D\0A
0.000500	-0.057037
0.001000	0.017329
0.001500	0.092661
0.002000	0.120347
0.002500	0.075277
0.003000	0.018295
0.003500	-0.010035
0.004000	-0.008426
0.004500	-5.540373E-5
0.005000	0.018617
0.005500	0.005417
0.006000	-0.014542
0.006500	-0.034824
0.007000	-0.025810
0.007500	-0.021947
0.008000	-0.033536
0.008500	-0.031283
0.009000	0.023768
0.009500	0.084291
0.010000	0.056283
0.010500	0.006383
0.011000	0.000910
0.011500	0.018939
0.012000	-0.021625
0.012500	-0.048023
0.013000	-0.039653
0.013500	-0.066052
0.014000	-0.108225
0.014500	-0.160056
0.015000	-0.229271
0.015500	-0.249231
0.016000	-0.162953
0.016500	-0.030961
0.017000	-0.008104
0.017500	-0.031283
0.018000	-0.013898
0.018500	0.062721
0.019000	0.149643
0.019500	0.158979
0.020000	0.094593
0.020500	0.020548
0.021000	-0.006816
0.021500	0.006383
0.022000	0.011534
0.022500	0.033104
0.023000	0.041152
0.023500	0.037611
0.024000	0.016685
0.024500	0.000267
0.025000	-0.011645
0.025500	-0.019049
0.026000	-0.016796
0.026500	-0.013577
0.027000	0.022480
0.027500	0.047913
0.028000	0.080750
0.028500	0.098134
0.029000	0.074955
0.029500	0.040508
0.030000	-0.010035
0.030500	-0.060579
0.031000	-0.097923
0.031500	-0.087943
0.032000	-0.050277
0.032500	-0.013898
0.033000	-0.027420
0.033500	-0.059613
0.034000	-0.063798
0.034500	-0.043838
0.035000	-0.039009
0.035500	-0.011001
0.036000	0.022158
0.036500	0.026343
0.037000	0.011856
0.037500	0.006383
0.038000	0.001232
0.038500	0.003808
0.039000	0.015397
0.039500	-0.012289
0.040000	-0.053174
0.040500	-0.103074
0.041000	-0.105327
0.041500	-0.039653
0.042000	0.036645
0.042500	0.061756
0.043000	0.030528
0.043500	0.020548
0.044000	0.001876
0.044500	-0.014220
0.045000	-0.001343
0.045500	0.023768
0.046000	0.030528
0.046500	0.012822
0.047000	-0.021625
0.047500	0.000588
0.048000	0.018617
0.048500	0.015719
0.049000	0.009924
0.049500	-0.033536
0.050000	-0.026776
0.050500	0.014432
0.051000	0.034069
0.051500	0.038898
0.052000	0.041796
0.052500	0.078496
0.053000	0.095237
0.053500	0.119381
0.054000	0.101675
0.054500	0.069160
0.055000	0.021192
0.055500	-0.068949
0.056000	-0.132370
0.056500	-0.166494
0.057000	-0.219935
0.057500	-0.264684
0.058000	-0.262108
0.058500	-0.176796
0.059000	-0.065730
0.059500	-0.029029
0.060000	-0.006494
0.060500	0.015397
0.061000	0.003808
0.061500	-0.017118
0.062000	-0.054784
0.062500	-0.043516
0.063000	0.046625
0.063500	0.102963
0.064000	0.074311
0.064500	-0.002631
0.065000	-0.045448
0.065500	-0.026454
0.066000	0.002198
0.066500	0.034391
0.067000	0.030850
0.067500	0.015397
0.068000	0.029562
0.068500	0.065297
0.069000	0.080106
0.069500	0.062078
0.070000	0.004130
0.070500	-0.034180
0.071000	-0.064120
0.071500	-0.069593
0.072000	-0.075388
0.072500	-0.090840
0.073000	-0.082148
0.073500	-0.047058
0.074000	-0.010035
0.074500	0.011856
0.075000	0.026021
0.075500	0.004774
0.076000	0.056283
0.076500	0.158335
0.077000	0.197289
0.077500	0.165740
0.078000	0.125820
0.078500	0.111977
0.079000	0.070448
0.079500	0.023124
0.080000	-0.023556
0.080500	-0.066052
0.081000	-0.047379
0.081500	-0.041263
0.082000	-0.046092
0.082500	-0.082470
0.083000	-0.079573
0.083500	-0.055106
0.084000	-0.001021
0.084500	0.021192
0.085000	0.028597
0.085500	0.030528
0.086000	0.019904
0.086500	-0.087621
0.087000	-0.157480
0.087500	-0.083114
0.088000	-0.024200
0.088500	-0.064764
0.089000	-0.110156
0.089500	-0.156193
0.090000	-0.183879
0.090500	-0.182913
0.091000	-0.147822
0.091500	-0.104361
0.092000	-0.051243
0.092500	0.028275
0.093000	0.037289
0.093500	-0.000699
0.094000	0.013144
0.094500	0.059180
0.095000	0.093627
0.095500	0.120025
0.096000	0.146102
0.096500	0.139663
0.097000	0.134834
0.097500	0.118416
0.098000	0.120991
0.098500	0.115840
0.099000	0.110045
0.099500	0.084935
0.100000	0.060790
0.100500	0.039220
0.101000	-0.003919
0.101500	-0.040941
0.102000	-0.055750
0.102500	-0.052208
0.103000	-0.093738
0.103500	-0.183235
0.104000	-0.239895
0.104500	-0.299774
0.105000	-0.317159
0.105500	-0.256957
0.106000	-0.135589
0.106500	-0.014864
0.107000	0.059824
0.107500	0.093305
0.108000	0.092339
0.108500	0.076564
0.109000	0.092339
0.109500	0.072379
0.110000	0.035357
0.110500	0.011212
0.111000	0.018939
0.111500	0.026987
0.112000	0.035357
0.112500	0.043405
0.113000	0.030850
0.113500	0.036323
0.114000	0.043727
0.114500	0.015075
0.115000	-0.028707
0.115500	-0.073456
0.116000	-0.050277
0.116500	-0.034502
0.117000	-0.028707
0.117500	-0.020015
0.118000	-0.014542
0.118500	-0.012289
0.119000	0.045659
0.119500	0.078496
0.120000	0.059180
0.120500	0.000910
0.121000	-0.027742
0.121500	0.003164
0.122000	0.046303
0.122500	0.068838
0.123000	0.015397
0.123500	-0.054784
0.124000	-0.077641
0.124500	-0.034180
0.125000	0.009603
0.125500	0.021514
0.126000	0.032782
0.126500	0.006061
0.127000	-0.016796
0.127500	-0.026132
0.128000	-0.005850
0.128500	0.032782
0.129000	0.037933
0.129500	-0.015830
0.130000	-0.050277
0.130500	-0.042872
0.131000	-0.042550
0.131500	-0.052530
0.132000	-0.099854
0.132500	-0.136555
0.133000	-0.151685
0.133500	-0.135911
0.134000	-0.085689
0.134500	-0.063154
0.135000	-0.051886
0.135500	0.018617
0.136000	0.078496
0.136500	0.052420
0.137000	0.027953
0.137500	0.066263
0.138000	0.135478
0.138500	0.151897
0.139000	0.121957
0.139500	0.082681
0.140000	0.054029
0.140500	0.065619
0.141000	0.123889
0.141500	0.124854
0.142000	0.091373
0.142500	0.028597
0.143000	-0.016474
0.143500	-0.076031
0.144000	-0.166816
0.144500	-0.189673
0.145000	-0.121102
0.145500	-0.069593
0.146000	-0.105649
0.146500	-0.139452
0.147000	-0.155227
0.147500	-0.222189
0.148000	-0.256313
0.148500	-0.195468
0.149000	-0.062832
0.149500	0.049522
0.150000	0.113909
0.150500	0.142239
0.151000	0.156726
0.151500	0.136444
0.152000	0.108436
0.152500	0.079140
0.153000	0.023768
0.153500	-0.005528
0.154000	0.004774
0.154500	0.017651
0.155000	0.003808
0.155500	-0.035790
0.156000	-0.044482
0.156500	-0.034502
0.157000	-0.026776
0.157500	0.006061
0.158000	0.007027
0.158500	-0.028064
0.159000	-0.024200
0.159500	-0.019371
0.160000	-0.020659
0.160500	-0.010679
0.161000	0.001232
0.161500	0.036323
0.162000	0.054673
0.162500	0.075599
0.163000	0.082681
0.163500	0.064653
0.164000	0.018295
0.164500	0.001554
0.165000	0.004130
0.165500	0.029240
0.166000	0.047269
0.166500	0.026987
0.167000	0.000267
0.167500	-0.018084
0.168000	-0.043838
0.168500	-0.129794
0.169000	-0.202873
0.169500	-0.191283
0.170000	-0.133979
0.170500	-0.089553
0.171000	-0.043516
0.171500	-0.038043
0.172000	-0.025166
0.172500	0.005739
0.173000	0.025377
0.173500	0.082037
0.174000	0.170891
0.174500	0.216283
0.175000	0.156082
0.175500	0.107792
0.176000	0.107792
0.176500	0.117450
0.177000	0.089764
0.177500	0.037933
0.178000	-0.006172
0.178500	-0.045448
0.179000	-0.069271
0.179500	-0.142028
0.180000	-0.199975
0.180500	-0.214140
0.181000	-0.198044
0.181500	-0.215428
0.182000	-0.153617
0.182500	-0.070880
0.183000	-0.030961
0.183500	0.030850
0.184000	0.043084
0.184500	0.080750
0.185000	0.107792
0.185500	0.091373
0.186000	0.059502
0.186500	0.056605
0.187000	0.084935
0.187500	0.104573
0.188000	0.121313
0.188500	0.119060
0.189000	0.125498
0.189500	0.107470
0.190000	0.074955
0.190500	0.036645
0.191000	-0.030317
0.191500	-0.118205
0.192000	-0.190317
0.192500	-0.223476
0.193000	-0.257279
0.193500	-0.302994
0.194000	-0.295911
0.194500	-0.276917
0.195000	-0.218969
0.195500	-0.105649
0.196000	0.049844
0.196500	0.126142
0.197000	0.164130
0.197500	0.131615
0.198000	0.100387
0.198500	0.065297
0.199000	0.063043
0.199500	0.080750
0.200000	0.077852
0.200500	0.062078
0.201000	0.034713
0.201500	0.000267
0.202000	-0.018406
0.202500	-0.020659
0.203000	-0.058647
0.203500	-0.085689
0.204000	-0.070559
0.204500	-0.051243
0.205000	-0.085367
0.205500	-0.065086
0.206000	0.018939
0.206500	0.074955
0.207000	0.066585
0.207500	0.053707
0.208000	0.049844
0.208500	0.018617
0.209000	-0.003919
0.209500	0.008637
0.210000	0.053707
0.210500	0.047913
0.211000	0.000910
0.211500	-0.028707
0.212000	-0.049311
0.212500	-0.027742
0.213000	0.018939
0.213500	0.020548
0.214000	0.015719
0.214500	-0.029351
0.215000	-0.046736
0.215500	-0.058969
0.216000	-0.078607
0.216500	-0.100498
0.217000	-0.112410
0.217500	-0.098889
0.218000	-0.048345
0.218500	-0.042872
0.219000	-0.052530
0.219500	-0.037400
0.220000	-0.023235
0.220500	0.002198
0.221000	0.041796
0.221500	0.082037
0.222000	0.101997
0.222500	0.080750
0.223000	0.071414
0.223500	0.055639
0.224000	0.020870
0.224500	-0.017118
0.225000	-0.072812
0.225500	-0.073456
0.226000	-0.012933
0.226500	0.006705
0.227000	0.012822
0.227500	0.038898
0.228000	0.064331
0.228500	0.084291
0.229000	0.077208
0.229500	0.036967
0.230000	0.031816
0.230500	0.079140
0.231000	0.137732
0.231500	0.134190
0.232000	0.099744
0.232500	0.060468
0.233000	0.045337
0.233500	0.044371
0.234000	-0.002953
0.234500	-0.058003
0.235000	-0.104040
0.235500	-0.169070
0.236000	-0.245368
0.236500	-0.277883
0.237000	-0.294945
0.237500	-0.265971
0.238000	-0.221223
0.238500	-0.150720
0.239000	-0.014542
0.239500	0.092339
0.240000	0.089764
0.240500	0.068194
0.241000	0.095237
0.241500	0.084291
0.242000	0.052741
0.242500	0.040186
0.243000	0.033104
0.243500	0.066263
0.244000	0.080750
0.244500	0.048556
0.245000	0.022802
0.245500	0.003808
0.246000	0.001554
0.246500	0.015719
0.247000	0.088798
0.247500	0.110689
0.248000	0.118738
0.248500	0.099744
0.249000	0.060146
0.249500	0.027953
0.250000	0.006061
0.250500	-0.038687
0.251000	-0.071524
0.251500	-0.114985
0.252000	-0.152007
0.252500	-0.132370
0.253000	-0.092450
0.253500	-0.041907
0.254000	-0.025488
0.254500	-0.033858
0.255000	-0.109190
0.255500	-0.138164
0.256000	-0.128828
0.256500	-0.127219
0.257000	-0.091162
0.257500	-0.049955
0.258000	-0.080860
0.258500	-0.087943
0.259000	-0.019049
0.259500	0.054351
0.260000	0.096524
0.260500	0.100709
0.261000	0.054351
0.261500	0.019904
0.262000	0.024733
0.262500	0.025377
0.263000	0.046625
0.263500	0.077530
0.264000	0.067550
0.264500	0.033426
0.265000	0.048878
0.265500	0.056605
0.266000	0.034391
0.266500	0.060146
0.267000	0.084935
0.267500	0.103929
0.268000	0.081715
0.268500	0.059502
0.269000	0.030206
0.269500	-0.011967
0.270000	-0.068305
0.270500	-0.125287
0.271000	-0.177440
0.271500	-0.171001
0.272000	-0.122712
0.272500	-0.097923
0.273000	-0.122712
0.273500	-0.105649
0.274000	-0.081504
0.274500	-0.089231
0.275000	-0.100498
0.275500	-0.084724
0.276000	-0.079573
0.276500	-0.065730
0.277000	-0.018084
0.277500	0.049844
0.278000	0.104895
0.278500	0.117450
0.279000	0.082359
0.279500	0.040186
0.280000	0.036967
0.280500	0.110689
0.281000	0.137088
0.281500	0.098134
0.282000	0.038255
0.282500	0.010890
0.283000	0.008315
0.283500	-0.007782
0.284000	-0.039653
0.284500	-0.025166
0.285000	-0.003597
0.285500	-0.015186
0.286000	-0.023878
0.286500	0.012822
0.287000	0.027631
0.287500	0.001876
0.288000	-0.012611
0.288500	-0.048023
0.289000	-0.102108
0.289500	-0.086977
0.290000	-0.055106
0.290500	-0.018406
0.291000	0.012500
0.291500	0.004774
0.292000	-0.076675
0.292500	-0.146856
0.293000	-0.177440
0.293500	-0.163919
0.294000	-0.147178
0.294500	-0.128184
0.295000	-0.090840
0.295500	-0.041907
0.296000	0.011534
0.296500	0.076243
0.297000	0.080750
0.297500	0.054995
0.298000	0.087188
0.298500	0.153828
0.299000	0.168315
0.299500	0.140629
0.300000	0.130327
0.300500	0.076243
0.301000	0.009603
0.301500	-0.022269
0.302000	-0.033214
0.302500	-0.030317
0.303000	-0.012289
0.303500	0.006705
0.304000	0.078174
0.304500	0.156726
0.305000	0.171856
0.305500	0.137410
0.306000	0.104251
0.306500	0.060146
0.307000	-0.008748
0.307500	-0.042550
0.308000	-0.002309
0.308500	0.011856
0.309000	-0.016474
0.309500	-0.097923
0.310000	-0.156836
0.310500	-0.198044
0.311000	-0.256635
0.311500	-0.313939
0.312000	-0.305891
0.312500	-0.257279
0.313000	-0.157802
0.313500	-0.018727
0.314000	0.055961
0.314500	0.084613
0.315000	0.134834
0.315500	0.158013
0.316000	0.131937
0.316500	0.104251
0.317000	0.064331
0.317500	0.001876
0.318000	-0.049311
0.318500	-0.064764
0.319000	-0.047379
0.319500	-0.022591
0.320000	-0.021947
0.320500	-0.014864
0.321000	0.010246
0.321500	0.010246
0.322000	-0.029673
0.322500	-0.052852
0.323000	-0.043516
0.323500	-0.043194
0.324000	-0.027098
0.324500	0.008959
0.325000	0.021514
0.325500	0.022802
0.326000	0.076564
0.326500	0.112943
0.327000	0.094915
0.327500	0.081715
0.328000	0.120669
0.328500	0.146424
0.329000	0.130971
0.329500	0.121313
0.330000	0.082681
0.330500	0.016685
0.331000	-0.061544
0.331500	-0.116273
0.332000	-0.116273
0.332500	-0.097923
0.333000	-0.057359
0.333500	-0.050921
0.334000	-0.056394
0.334500	-0.041585
0.335000	-0.081504
0.335500	-0.115951
0.336000	-0.181303
0.336500	-0.194181
0.337000	-0.146213
0.337500	-0.068305
0.338000	0.010890
0.338500	0.030850
0.339000	0.017651
0.339500	-0.023878
0.340000	-0.104361
0.340500	-0.173899
0.341000	-0.184523
0.341500	-0.143959
0.342000	-0.075388
0.342500	0.004774
0.343000	0.054029
0.343500	0.093627
0.344000	0.125820
0.344500	0.167027
0.345000	0.170569
0.345500	0.150609
0.346000	0.101031
0.346500	0.054029
0.347000	0.015719
0.347500	0.015719
0.348000	0.025055
0.348500	0.022802
0.349000	0.017329
0.349500	0.008315
0.350000	0.003164
0.350500	0.014432
0.351000	0.051454
0.351500	0.075921
0.352000	0.062399
0.352500	0.032782
0.353000	0.005417
0.353500	-0.001343
0.354000	0.010890
0.354500	-0.012289
0.355000	-0.003919
0.355500	-0.005850
0.356000	-0.043194
0.356500	-0.089231
0.357000	-0.094382
0.357500	-0.070880
0.358000	-0.083436
0.358500	-0.110156
0.359000	-0.114341
0.359500	-0.084080
0.360000	-0.086011
0.360500	-0.068949
0.361000	-0.068949
0.361500	-0.045448
0.362000	0.001554
0.362500	0.017007
0.363000	-0.028064
0.363500	-0.037078
0.364000	0.020870
0.364500	0.112299
0.365000	0.167671
0.365500	0.174432
0.366000	0.142561
0.366500	0.123567
0.367000	0.134190
0.367500	0.129361
0.368000	0.137410
0.368500	0.106182
0.369000	0.093949
0.369500	0.063043
0.370000	0.032782
0.370500	-0.022269
0.371000	-0.088265
0.371500	-0.175508
0.372000	-0.221867
0.372500	-0.202551
0.373000	-0.171323
0.373500	-0.213175
0.374000	-0.228949
0.374500	-0.227018
0.375000	-0.207058
0.375500	-0.169714
0.376000	-0.075066
0.376500	-0.014864
0.377000	0.017973
0.377500	0.082037
0.378000	0.137732
0.378500	0.123889
0.379000	0.117128
0.379500	0.148999
0.380000	0.155116
0.380500	0.103929
0.381000	0.028275
0.381500	0.010890
0.382000	-0.002953
0.382500	-0.022913
0.383000	-0.031605
0.383500	-0.039975
0.384000	-0.070237
0.384500	-0.110478
0.385000	-0.141062
0.385500	-0.148144
0.386000	-0.102430
0.386500	-0.083114
0.387000	-0.051243
0.387500	-0.050277
0.388000	-0.005206
0.388500	0.057570
0.389000	0.055961
0.389500	0.056927
0.390000	0.061434
0.390500	0.085901
0.391000	0.053063
0.391500	-0.000699
0.392000	-0.062188
0.392500	-0.092128
0.393000	-0.082470
0.393500	-0.072168
0.394000	-0.051886
0.394500	-0.026132
0.395000	-0.015830
0.395500	0.029562
0.396000	0.148033
0.396500	0.203728
0.397000	0.168315
0.397500	0.101997
0.398000	0.047591
0.398500	0.014110
0.399000	-0.000699
0.399500	-0.004241
0.400000	0.031816
0.400500	0.002842
0.401000	-0.041263
0.401500	-0.086011
0.402000	-0.100176
0.402500	-0.069593
0.403000	-0.110478
0.403500	-0.159734
0.404000	-0.148788
0.404500	-0.049955
0.405000	0.041796
0.405500	0.069160
0.406000	0.067872
0.406500	0.056927
0.407000	0.006705
0.407500	-0.012289
0.408000	-0.008104
0.408500	-0.021625
0.409000	-0.023556
0.409500	-0.039009
0.410000	-0.076997
0.410500	-0.083114
0.411000	-0.034502
0.411500	-0.027742
0.412000	-0.084080
0.412500	-0.099211
0.413000	-0.078285
0.413500	-0.027420
0.414000	0.033104
0.414500	0.075599
0.415000	0.110045
0.415500	0.101675
0.416000	0.073023
0.416500	0.082359
0.417000	0.087188
0.417500	0.073667
0.418000	0.064009
0.418500	0.074311
0.419000	0.081072
0.419500	0.036645
0.420000	-0.012289
0.420500	-0.041263
0.421000	-0.095347
0.421500	-0.123677
0.422000	-0.139130
0.422500	-0.170358
0.423000	-0.169392
0.423500	-0.166494
0.424000	-0.146856
0.424500	-0.077319
0.425000	-0.026454
0.425500	-0.003275
0.426000	0.025377
0.426500	0.024733
0.427000	0.020226
0.427500	0.029562
0.428000	0.064331
0.428500	0.062078
0.429000	0.048234
0.429500	0.012178
0.430000	0.011534
0.430500	0.032782
0.431000	0.031172
0.431500	0.002842
0.432000	-0.004241
0.432500	-0.009713
0.433000	0.004130
0.433500	0.005739
0.434000	-0.010357
0.434500	-0.029351
0.435000	-0.040619
0.435500	-0.019371
0.436000	0.007349
0.436500	0.014753
0.437000	0.011534
0.437500	0.026987
0.438000	0.044693
0.438500	0.042440
0.439000	0.029562
0.439500	0.047269
0.440000	0.067228
0.440500	0.079784
0.441000	0.050488
0.441500	0.027309
0.442000	0.074955
0.442500	0.103285
0.443000	0.112621
0.443500	0.090086
0.444000	0.073023
0.444500	0.054351
0.445000	0.023768
0.445500	-0.007460
0.446000	-0.044160
0.446500	-0.072168
0.447000	-0.138164
0.447500	-0.174221
0.448000	-0.150720
0.448500	-0.099211
0.449000	-0.089874
0.449500	-0.091806
0.450000	-0.131404
0.450500	-0.121424
0.451000	-0.128828
0.451500	-0.131726
0.452000	-0.104683
0.452500	-0.057681
0.453000	-0.076031
0.453500	-0.107581
0.454000	-0.095991
0.454500	-0.063154
0.455000	-0.020337
0.455500	0.011856
0.456000	0.027631
0.456500	0.044371
0.457000	0.045015
0.457500	0.045981
0.458000	0.036967
0.458500	0.009281
0.459000	0.005739
0.459500	0.002842
0.460000	0.009603
0.460500	0.020226
0.461000	0.040508
0.461500	0.073345
0.462000	0.077530
0.462500	0.071092
0.463000	0.076886
0.463500	0.075921
0.464000	0.095880
0.464500	0.121635
0.465000	0.132903
0.465500	0.124854
0.466000	0.080750
0.466500	0.006061
0.467000	-0.023556
0.467500	-0.012289
0.468000	-0.028385
0.468500	-0.075709
0.469000	-0.122390
0.469500	-0.196756
0.470000	-0.258245
0.470500	-0.209955
0.471000	-0.114663
0.471500	-0.095669
0.472000	-0.027742
0.472500	-0.000377
0.473000	0.005096
0.473500	0.031494
0.474000	0.073023
0.474500	0.092983
0.475000	0.048878
0.475500	0.006705
0.476000	-0.026132
0.476500	0.006383
0.477000	0.015075
0.477500	-0.036112
0.478000	-0.066695
0.478500	-0.049311
0.479000	-0.046736
0.479500	-0.076353
0.480000	-0.110156
0.480500	-0.108547
0.481000	0.008637
0.481500	0.110045
0.482000	0.090730
0.482500	0.034069
0.483000	0.013788
0.483500	0.091695
0.484000	0.097812
0.484500	0.024411
0.485000	0.009603
0.485500	0.033747
0.486000	0.009281
0.486500	-0.048989
0.487000	-0.049633
0.487500	-0.025166
0.488000	0.010890
0.488500	0.018617
0.489000	0.044693
0.489500	0.049200
0.490000	0.042118
0.490500	0.028275
0.491000	-0.021947
0.491500	-0.089874
0.492000	-0.099532
0.492500	-0.100498
0.493000	-0.093738
0.493500	-0.078929
0.494000	-0.087621
0.494500	-0.051243
0.495000	-0.003919
0.495500	0.055317
0.496000	0.073667
0.496500	0.063365
0.497000	0.103929
0.497500	0.103607
0.498000	0.086544
0.498500	0.033104
0.499000	-0.013255
0.499500	-0.034180
0.500000	-0.022269
0.500500	-0.005850
0.501000	-0.033536
0.501500	-0.029995
0.502000	-0.019049
0.502500	-0.002309
0.503000	-0.011645
0.503500	-0.034180
0.504000	-0.021303
0.504500	0.064331
0.505000	0.140951
0.505500	0.147712
0.506000	0.119381
0.506500	0.069482
0.507000	0.016363
0.507500	-0.005850
0.508000	-0.034502
0.508500	-0.056394
0.509000	-0.040297
0.509500	-0.055428
0.510000	-0.121746
0.510500	-0.189352
0.511000	-0.226696
0.511500	-0.226374
0.512000	-0.227983
0.512500	-0.240861
0.513000	-0.261464
0.513500	-0.207380
0.514000	-0.062188
0.514500	0.068838
0.515000	0.099422
0.515500	0.093949
0.516000	0.114231
0.516500	0.124532
0.517000	0.120669
0.517500	0.078818
0.518000	0.041152
0.518500	0.028597
0.519000	0.028275
0.519500	0.039220
0.520000	0.040186
0.520500	0.031172
0.521000	0.024733
0.521500	0.005096
0.522000	-0.025488
0.522500	-0.032571
0.523000	-0.015186
0.523500	0.031816
0.524000	0.021836
0.524500	-0.035468
0.525000	-0.105327
0.525500	-0.104683
0.526000	-0.059291
0.526500	-0.021303
0.527000	-0.022269
0.527500	-0.019049
0.528000	0.040186
0.528500	0.099744
0.529000	0.102963
0.529500	0.057892
0.530000	0.028275
0.530500	0.043405
0.531000	0.040186
0.531500	-0.005528
0.532000	-0.028064
0.532500	-0.013255
0.533000	0.005739
0.533500	0.000910
0.534000	0.017973
0.534500	0.045015
0.535000	0.048878
0.535500	0.024090
0.536000	-0.028064
0.536500	-0.102430
0.537000	-0.151042
0.537500	-0.141384
0.538000	-0.132370
0.538500	-0.119814
0.539000	-0.093738
0.539500	-0.033214
0.540000	0.005739
0.540500	-0.022269
0.541000	-0.051243
0.541500	-0.027742
0.542000	-0.021625
0.542500	-0.022913
0.543000	-0.052530
0.543500	-0.055750
0.544000	0.002198
0.544500	0.072379
0.545000	0.078496
0.545500	0.038576
0.546000	0.022158
0.546500	-0.014220
0.547000	-0.029351
0.547500	0.029240
0.548000	0.085257
0.548500	0.092339
0.549000	0.080428
0.549500	0.063365
0.550000	0.027631
0.550500	-0.003919
0.551000	-0.032249
0.551500	-0.029673
0.552000	0.012822
0.552500	0.014432
0.553000	-0.026776
0.553500	-0.054140
0.554000	-0.051243
0.554500	-0.012289
0.555000	-0.001021
0.555500	-0.010035
0.556000	-0.013898
0.556500	-0.031927
0.557000	-0.042229
0.557500	-0.055750
0.558000	-0.040619
0.558500	-0.040297
0.559000	-0.011323
0.559500	-0.058325
0.560000	-0.073778
0.560500	-0.013577
0.561000	0.026343
0.561500	0.060468
0.562000	0.101997
0.562500	0.095880
0.563000	0.060146
0.563500	0.046947
0.564000	0.025377
0.564500	0.000588
0.565000	-0.023878
0.565500	-0.061544
0.566000	-0.046414
0.566500	-0.014220
0.567000	0.023124
0.567500	0.059180
0.568000	0.011212
0.568500	-0.056394
0.569000	-0.084080
0.569500	-0.096635
0.570000	-0.090840
0.570500	-0.086011
0.571000	-0.027742
0.571500	0.014110
0.572000	0.029884
0.572500	0.082359
0.573000	0.114874
0.573500	0.101997
0.574000	0.108114
0.574500	0.100066
0.575000	0.101675
0.575500	0.102963
0.576000	0.088798
0.576500	0.045015
0.577000	0.003486
0.577500	-0.021303
0.578000	-0.026132
0.578500	-0.052530
0.579000	-0.099532
0.579500	-0.162953
0.580000	-0.165207
0.580500	-0.157802
0.581000	-0.171645
0.581500	-0.135267
0.582000	-0.107903
0.582500	-0.110478
0.583000	-0.132370
0.583500	-0.073456
0.584000	0.008315
0.584500	0.047591
0.585000	0.059180
0.585500	0.073667
0.586000	0.097168
0.586500	0.090730
0.587000	0.056927
0.587500	0.002520
0.588000	-0.021303
0.588500	-0.028707
0.589000	-0.012611
0.589500	0.006061
0.590000	-0.012289
0.590500	-0.021947
0.591000	-0.042872
0.591500	-0.052852
0.592000	-0.049311
0.592500	-0.052852
0.593000	-0.059613
0.593500	-0.033536
0.594000	0.011856
0.594500	0.021514
0.595000	-0.019371
0.595500	-0.031927
0.596000	-0.020337
0.596500	-0.010679
0.597000	-0.005850
0.597500	-0.021303
0.598000	-0.030317
0.598500	-0.057681
0.599000	-0.058969
0.599500	-0.043194
0.600000	-0.018727
0.600500	0.024733
0.601000	0.029240
0.601500	-0.008426
0.602000	-0.028707
0.602500	0.007671
0.603000	0.077530
0.603500	0.076564
0.604000	0.076886
0.604500	0.063365
0.605000	0.044049
0.605500	0.056283
0.606000	0.081715
0.606500	0.085257
0.607000	0.074311
0.607500	0.030528
0.608000	-0.030961
0.608500	-0.068305
0.609000	-0.108225
0.609500	-0.124965
0.610000	-0.097279
0.610500	-0.119170
0.611000	-0.150076
0.611500	-0.116273
0.612000	-0.016796
0.612500	0.007349
0.613000	-0.024200
0.613500	-0.029995
0.614000	-0.010679
0.614500	0.035679
0.615000	0.083647
0.615500	0.067872
0.616000	0.041796
0.616500	0.034069
0.617000	0.020548
0.617500	-0.015508
0.618000	-0.056715
0.618500	-0.054462
0.619000	-0.015508
0.619500	0.035357
0.620000	0.033747
0.620500	0.036967
0.621000	0.048878
0.621500	0.021192
0.622000	-0.009070
0.622500	-0.033858
0.623000	-0.033858
0.623500	-0.015508
0.624000	0.014110
0.624500	0.008315
0.625000	-0.016152
0.625500	-0.009391
0.626000	-0.003275
0.626500	0.009924
0.627000	0.058858
0.627500	0.094915
0.628000	0.094915
0.628500	0.119703
0.629000	0.126142
0.629500	0.049200
0.630000	-0.067339
0.630500	-0.111444
0.631000	-0.140740
0.631500	-0.140096
0.632000	-0.158768
0.632500	-0.190317
0.633000	-0.170036
0.633500	-0.108868
0.634000	-0.080860
0.634500	-0.071524
0.635000	-0.025166
0.635500	0.026987
0.636000	0.069160
0.636500	0.090086
0.637000	0.083647
0.637500	0.063365
0.638000	0.040186
0.638500	-0.026132
0.639000	-0.057359
0.639500	-0.042872
0.640000	-0.029029
0.640500	-0.033858
0.641000	-0.029029
0.641500	0.007993
0.642000	0.039542
0.642500	0.034391
0.643000	0.026665
0.643500	0.006383
0.644000	-0.028707
0.644500	-0.048667
0.645000	-0.012933
0.645500	0.088154
0.646000	0.122279
0.646500	0.076243
0.647000	0.025055
0.647500	-0.013577
0.648000	-0.015508
0.648500	-0.022591
0.649000	-0.037400
0.649500	-0.032249
0.650000	-0.038687
0.650500	-0.056715
0.651000	-0.118205
0.651500	-0.164563
0.652000	-0.152651
0.652500	-0.075066
0.653000	-0.049311
0.653500	-0.053496
0.654000	-0.048667
0.654500	-0.048989
0.655000	-0.050599
0.655500	-0.032892
0.656000	0.002198
0.656500	0.045015
0.657000	0.075277
0.657500	0.082037
0.658000	0.064009
0.658500	0.064653
0.659000	0.059180
0.659500	0.067872
0.660000	0.061112
0.660500	0.034713
0.661000	-0.004884
0.661500	-0.016474
0.662000	-0.004884
0.662500	-0.007138
0.663000	-0.031605
0.663500	-0.057037
0.664000	-0.058325
0.664500	-0.037721
0.665000	0.019582
0.665500	0.008637
0.666000	0.036323
0.666500	0.058858
0.667000	0.028275
0.667500	-0.007138
0.668000	-0.004884
0.668500	0.041474
0.669000	0.071092
0.669500	0.092017
0.670000	0.098456
0.670500	0.076243
0.671000	0.030206
0.671500	0.007349
0.672000	0.018295
0.672500	0.045337
0.673000	0.005739
0.673500	-0.065408
0.674000	-0.114985
0.674500	-0.123355
0.675000	-0.070559
0.675500	-0.080860
0.676000	-0.080217
0.676500	-0.088587
0.677000	-0.114341
0.677500	-0.070559
0.678000	-0.045770
0.678500	-0.058003
0.679000	-0.016152
0.679500	0.031494
0.680000	0.037289
0.680500	-0.001665
0.681000	-0.018406
0.681500	-0.054462
0.682000	-0.093738
0.682500	-0.072812
0.683000	-0.013255
0.683500	-5.540373E-5
0.684000	-0.046414
0.684500	-0.062832
0.685000	-0.068949
0.685500	-0.043838
0.686000	0.002198
0.686500	0.047269
0.687000	0.093627
0.687500	0.124532
0.688000	0.153184
0.688500	0.142561
0.689000	0.135800
0.689500	0.144814
0.690000	0.135800
0.690500	0.114874
0.691000	0.116806
0.691500	0.102641
0.692000	0.115518
0.692500	0.090730
0.693000	0.049844
0.693500	0.007671
0.694000	-0.050277
0.694500	-0.160700
0.695000	-0.276917
0.695500	-0.302350
0.696000	-0.247299
0.696500	-0.225730
0.697000	-0.180337
0.697500	-0.101142
0.698000	-0.083758
0.698500	-0.115307
0.699000	-0.143315
0.699500	-0.162309
0.700000	-0.131082
0.700500	-0.073134
0.701000	-0.029029
0.701500	0.003808
0.702000	0.049844
0.702500	0.112621
0.703000	0.137732
0.703500	0.125176
0.704000	0.092339
0.704500	0.074633
0.705000	0.059180
0.705500	0.053707
0.706000	0.065619
0.706500	0.058858
0.707000	0.042762
0.707500	0.015719
0.708000	0.012178
0.708500	0.007349
0.709000	-0.063154
0.709500	-0.126897
0.710000	-0.120780
0.710500	-0.125609
0.711000	-0.150398
0.711500	-0.118526
0.712000	-0.069915
0.712500	-0.008748
0.713000	0.044049
0.713500	0.069482
0.714000	0.084291
0.714500	0.077530
0.715000	0.073345
0.715500	0.048556
0.716000	0.064331
0.716500	0.088476
0.717000	0.127430
0.717500	0.140951
0.718000	0.111333
0.718500	0.064331
0.719000	0.015397
0.719500	-0.039653
0.720000	-0.078929
0.720500	-0.074744
0.721000	-0.037721
0.721500	-0.010357
0.722000	0.007349
0.722500	0.008637
0.723000	-0.016152
0.723500	-0.048023
0.724000	-0.103718
0.724500	-0.126897
0.725000	-0.079895
0.725500	-0.029995
0.726000	0.022158
0.726500	0.009924
0.727000	-0.017440
0.727500	-0.066052
0.728000	-0.073778
0.728500	-0.028707
0.729000	-0.017762
0.729500	0.018939
0.730000	0.006705
0.730500	-0.033858
0.731000	-0.048667
0.731500	-0.009713
0.732000	0.041796
0.732500	0.052741
0.733000	0.025055
0.733500	-0.025488
0.734000	-0.064442
0.734500	-0.094060
0.735000	-0.109190
0.735500	-0.117883
0.736000	-0.117239
0.736500	-0.093416
0.737000	-0.045770
0.737500	-0.043838
0.738000	-0.017118
0.738500	0.015719
0.739000	0.024090
0.739500	0.015719
0.740000	0.013788
0.740500	0.000588
0.741000	0.006061
0.741500	0.032138
0.742000	0.067550
0.742500	0.142883
0.743000	0.234311
0.743500	0.254271
0.744000	0.256525
0.744500	0.271977
0.745000	0.273265
0.745500	0.250730
0.746000	0.174754
0.746500	0.088476
0.747000	-0.007460
0.747500	-0.083758
0.748000	-0.151364
0.748500	-0.232812
0.749000	-0.312330
0.749500	-0.414704
0.750000	-0.487783
0.750500	-0.469432
0.751000	-0.411163
0.751500	-0.344523
0.752000	-0.193215
0.752500	-0.046092
0.753000	0.066263
0.753500	0.180871
0.754000	0.266183
0.754500	0.216283
0.755000	0.111011
0.755500	0.047269
0.756000	0.047913
0.756500	0.054673
0.757000	0.052741
0.757500	0.067550
0.758000	0.072379
0.758500	0.085901
0.759000	0.068194
0.759500	0.049844
0.760000	0.005096
0.760500	-0.050277
0.761000	-0.072490
0.761500	-0.053818
0.762000	-0.016152
0.762500	-0.015830
0.763000	-0.057037
0.763500	-0.059935
0.764000	-0.033858
0.764500	-0.027098
0.765000	-0.030639
0.765500	-0.001665
0.766000	-0.018084
0.766500	-0.058647
0.767000	-0.012611
0.767500	0.048234
0.768000	0.049522
0.768500	0.035357
0.769000	-0.009713
0.769500	-0.064442
0.770000	-0.116595
0.770500	-0.059935
0.771000	0.009924
0.771500	0.045981
0.772000	0.063365
0.772500	0.058214
0.773000	0.029562
0.773500	0.022158
0.774000	0.012500
0.774500	-0.016152
0.775000	-0.033536
0.775500	-0.011967
0.776000	0.023446
0.776500	0.034069
0.777000	0.026343
0.777500	0.009924
0.778000	0.005417
0.778500	0.046947
0.779000	0.067550
0.779500	0.070126
0.780000	0.034069
0.780500	0.026987
0.781000	0.043084
0.781500	0.044693
0.782000	0.040830
0.782500	-0.016474
0.783000	-0.071524
0.783500	-0.150076
0.784000	-0.143959
0.784500	-0.154261
0.785000	-0.204482
0.785500	-0.157802
0.786000	-0.086011
0.786500	-0.034180
0.787000	0.051454
0.787500	0.146746
0.788000	0.191494
0.788500	0.179905
0.789000	0.109724
0.789500	0.029562
0.790000	-0.015508
0.790500	-0.023878
0.791000	-0.026132
0.791500	-0.042550
0.792000	-0.060901
0.792500	-0.102108
0.793000	-0.122068
0.793500	-0.116595
0.794000	-0.042872
0.794500	0.017329
0.795000	0.047913
0.795500	0.091695
0.796000	0.072701
0.796500	0.011856
0.797000	-0.022913
0.797500	-0.023878
0.798000	0.047269
0.798500	0.075599
0.799000	0.027953
0.799500	-0.075388
0.800000	-0.154905
0.800500	-0.152651
0.801000	-0.114663
0.801500	-0.101464
0.802000	-0.068627
0.802500	0.007993
0.803000	0.092017
0.803500	0.129361
0.804000	0.099100
0.804500	0.094915
0.805000	0.106182
0.805500	0.065941
0.806000	0.023124
0.806500	-0.029995
0.807000	-0.047379
0.807500	-0.036112
0.808000	-0.053496
0.808500	-0.080860
0.809000	-0.139452
0.809500	-0.238607
0.810000	-0.233778
0.810500	-0.187420
0.811000	-0.143637
0.811500	-0.067017
0.812000	-0.004241
0.812500	0.052420
0.813000	0.118416
0.813500	0.133547
0.814000	0.138697
0.814500	0.144170
0.815000	0.116162
0.815500	0.085579
0.816000	0.063043
0.816500	0.032460
0.817000	-0.025810
0.817500	-0.035468
0.818000	-0.023878
0.818500	-0.030639
0.819000	-0.051565
0.819500	-0.064764
0.820000	-0.076997
0.820500	-0.059935
0.821000	-0.015508
0.821500	0.027309
0.822000	0.002520
0.822500	-0.059935
0.823000	-0.069271
0.823500	-0.054140
0.824000	-0.036434
0.824500	-0.026132
0.825000	-0.001343
0.825500	0.034069
0.826000	0.061434
0.826500	0.040508
0.827000	0.034391
0.827500	0.006383
0.828000	-0.002953
0.828500	-0.016152
0.829000	-0.027742
0.829500	-0.046736
0.830000	-0.056072
0.830500	-0.031605
0.831000	-0.009713
0.831500	0.001554
0.832000	0.017973
0.832500	0.058536
0.833000	0.065297
0.833500	0.071414
0.834000	0.061434
0.834500	0.086544
0.835000	0.101031
0.835500	0.109402
0.836000	0.114552
0.836500	0.084935
0.837000	0.067228
0.837500	0.048234
0.838000	0.024411
0.838500	0.006383
0.839000	0.003164
0.839500	-0.027742
0.840000	-0.108868
0.840500	-0.175187
0.841000	-0.156514
0.841500	-0.129794
0.842000	-0.113376
0.842500	-0.153939
0.843000	-0.195468
0.843500	-0.198366
0.844000	-0.160056
0.844500	-0.077319
0.845000	0.012822
0.845500	0.104895
0.846000	0.147712
0.846500	0.144492
0.847000	0.083325
0.847500	-0.020659
0.848000	-0.037721
0.848500	0.006061
0.849000	0.021514
0.849500	-0.025488
0.850000	-0.060901
0.850500	-0.084402
0.851000	-0.072490
0.851500	-0.092772
0.852000	-0.093416
0.852500	0.005096
0.853000	0.094271
0.853500	0.085579
0.854000	0.038255
0.854500	0.027309
0.855000	0.028919
0.855500	0.022158
0.856000	0.029562
0.856500	0.017973
0.857000	0.027309
0.857500	0.030850
0.858000	0.044693
0.858500	0.040186
0.859000	0.029884
0.859500	0.102963
0.860000	0.190529
0.860500	0.202440
0.861000	0.132259
0.861500	0.033104
0.862000	-0.011001
0.862500	-0.002309
0.863000	-0.010679
0.863500	-0.033214
0.864000	-0.112410
0.864500	-0.194502
0.865000	-0.205770
0.865500	-0.170036
0.866000	-0.178084
0.866500	-0.182269
0.867000	-0.186132
0.867500	-0.182591
0.868000	-0.149432
0.868500	-0.105327
0.869000	0.001232
0.869500	0.102641
0.870000	0.114874
0.870500	0.089120
0.871000	0.063365
0.871500	0.062721
0.872000	0.042762
0.872500	-0.002953
0.873000	-0.030317
0.873500	-0.046736
0.874000	-0.079573
0.874500	-0.067339
0.875000	-0.096635
0.875500	-0.133335
0.876000	-0.129794
0.876500	-0.080217
0.877000	-0.043516
0.877500	-0.005206
0.878000	0.103285
0.878500	0.207269
0.879000	0.265217
0.879500	0.243325
0.880000	0.196001
0.880500	0.080428
0.881000	-0.042872
0.881500	-0.067661
0.882000	-0.043194
0.882500	-0.024200
0.883000	-0.013898
0.883500	-0.027742
0.884000	-0.044482
0.884500	-0.043838
0.885000	-0.048667
0.885500	-0.024522
0.886000	0.017973
0.886500	0.058858
0.887000	0.040508
0.887500	0.031494
0.888000	0.055639
0.888500	0.071092
0.889000	0.077530
0.889500	0.060790
0.890000	0.016041
0.890500	-0.051565
0.891000	-0.117883
0.891500	-0.147822
0.892000	-0.114985
0.892500	-0.028385
0.893000	0.031816
0.893500	0.030850
0.894000	-0.009070
0.894500	-0.001021
0.895000	-0.052530
0.895500	-0.085689
0.896000	-0.043516
0.896500	-0.059935
0.897000	-0.089874
0.897500	-0.101786
0.898000	-0.083114
0.898500	-0.065086
0.899000	-0.048989
0.899500	-0.013898
0.900000	0.040508
0.900500	0.064653
0.901000	0.028275
0.901500	0.001232
0.902000	0.026343
0.902500	0.095558
0.903000	0.083325
0.903500	0.044049
0.904000	-0.018084
0.904500	-0.059613
0.905000	-0.054140
0.905500	-0.036756
0.906000	-0.007460
0.906500	-0.004884
0.907000	-0.071202
0.907500	-0.107581
0.908000	-0.112410
0.908500	-0.127862
0.909000	-0.068627
0.909500	0.035679
0.910000	0.129039
0.910500	0.171856
0.911000	0.140629
0.911500	0.114231
0.912000	0.067228
0.912500	0.030206
0.913000	0.004452
0.913500	-0.001987
0.914000	0.019582
0.914500	0.033747
0.915000	-0.013255
0.915500	-0.082470
0.916000	-0.122068
0.916500	-0.116917
0.917000	-0.172289
0.917500	-0.199331
0.918000	-0.095991
0.918500	-0.036756
0.919000	-0.030961
0.919500	0.007993
0.920000	0.045659
0.920500	0.055961
0.921000	0.036323
0.921500	0.036323
0.922000	0.024411
0.922500	-5.540373E-5
0.923000	-0.024200
0.923500	-0.020981
0.924000	-0.024844
0.924500	-0.019371
0.925000	0.007993
0.925500	0.019582
0.926000	0.035357
0.926500	0.028597
0.927000	0.019904
0.927500	0.009281
0.928000	-0.020015
0.928500	-0.029351
0.929000	0.009281
0.929500	0.029240
0.930000	0.026343
0.930500	0.036323
0.931000	0.055639
0.931500	0.069482
0.932000	0.064975
0.932500	0.064331
0.933000	0.104573
0.933500	0.097812
0.934000	0.023124
0.934500	-0.042872
0.935000	-0.087621
0.935500	-0.067661
0.936000	-0.025488
0.936500	0.009281
0.937000	0.006061
0.937500	-0.051243
0.938000	-0.086655
0.938500	-0.108225
0.939000	-0.107259
0.939500	-0.095991
0.940000	-0.050277
0.940500	-0.018084
0.941000	-0.006816
0.941500	-0.025810
0.942000	-0.053496
0.942500	-0.060901
0.943000	-0.067339
0.943500	-0.054462
0.944000	-0.046736
0.944500	-0.082470
0.945000	-0.052530
0.945500	0.007349
0.946000	0.023446
0.946500	0.008637
0.947000	-0.010035
0.947500	-0.013898
0.948000	0.010890
0.948500	0.054995
0.949000	0.077208
0.949500	0.078174
0.950000	0.045981
0.950500	0.033747
0.951000	0.026987
0.951500	0.011534
0.952000	-0.014220
0.952500	-0.036756
0.953000	-0.039653
0.953500	-0.024200
0.954000	-0.064764
0.954500	-0.117239
0.955000	-0.096635
0.955500	-0.035146
0.956000	0.039864
0.956500	0.079462
0.957000	0.151253
0.957500	0.171213
0.958000	0.098456
0.958500	0.020226
0.959000	-0.000699
0.959500	0.003486
0.960000	-0.016796
0.960500	-0.035146
0.961000	-0.056394
0.961500	-0.050277
0.962000	-0.047701
0.962500	-0.059613
0.963000	-0.065730
0.963500	-0.062832
0.964000	-0.041907
0.964500	-0.047058
0.965000	-0.071524
0.965500	-0.085689
0.966000	-0.125931
0.966500	-0.085046
0.967000	-0.039331
0.967500	-0.051565
0.968000	-0.039331
0.968500	0.010568
0.969000	0.094915
0.969500	0.155438
0.970000	0.143526
0.970500	0.085257
0.971000	0.046625
0.971500	0.077852
0.972000	0.120025
0.972500	0.124532
0.973000	0.096846
0.973500	0.043727
0.974000	-0.053818
0.974500	-0.124321
0.975000	-0.161343
0.975500	-0.151042
0.976000	-0.080217
0.976500	-0.059935
0.977000	-0.114985
0.977500	-0.190961
0.978000	-0.179372
0.978500	-0.092772
0.979000	-0.076675
0.979500	-0.071202
0.980000	-0.028707
0.980500	-0.038365
0.981000	-0.047058
0.981500	-0.007460
0.982000	0.011534
0.982500	0.023446
0.983000	0.022480
0.983500	0.042762
0.984000	0.095880
0.984500	0.093949
0.985000	0.080106
0.985500	0.088476
0.986000	0.138697
0.986500	0.103929
0.987000	0.039864
0.987500	0.003164
0.988000	-0.006816
0.988500	0.010568
0.989000	0.001876
0.989500	-0.023878
0.990000	-0.046414
0.990500	-0.057037
0.991000	-0.040941
0.991500	-0.013898
0.992000	-0.024200
0.992500	-0.085367
0.993000	-0.119170
0.993500	-0.097279
0.994000	-0.029995
0.994500	0.029562
0.995000	0.079462
0.995500	0.096524
0.996000	0.118738
0.996500	0.115840
0.997000	0.096524
0.997500	0.084291
0.998000	0.085579
0.998500	0.059502
0.999000	0.064331
0.999500	0.064975
1.000000	-0.000699
1.000500	-0.064764
1.001000	-0.093094
1.001500	-0.117239
1.002000	-0.131726
1.002500	-0.172611
1.003000	-0.204804
1.003500	-0.210599
1.004000	-0.186776
1.004500	-0.152651
1.005000	-0.124321
1.005500	-0.052530
1.006000	0.027953
1.006500	0.029884
1.007000	0.010568
1.007500	0.063365
1.008000	0.083647
1.008500	0.066907
1.009000	0.097490
1.009500	0.115840
1.010000	0.104573
1.010500	0.078174
1.011000	0.067228
1.011500	0.077530
1.012000	0.075599
1.012500	0.043727
1.013000	-0.013898
1.013500	-0.028064
1.014000	-0.012289
1.014500	0.003808
1.015000	-0.034180
1.015500	-0.056715
1.016000	-0.034824
1.016500	-0.028707
1.017000	-0.070559
1.017500	-0.128506
1.018000	-0.144603
1.018500	-0.120780
1.019000	-0.102752
1.019500	-0.092450
1.020000	-0.071846
1.020500	-0.023235
1.021000	0.012178
1.021500	0.045015
1.022000	0.020870
1.022500	0.023768
1.023000	0.036001
1.023500	0.054029
1.024000	0.065619
1.024500	0.060790
1.025000	0.065941
1.025500	0.052420
1.026000	0.020548
1.026500	-0.018727
1.027000	-0.030961
1.027500	-0.034824
1.028000	-0.003919
1.028500	0.025055
1.029000	0.040186
1.029500	0.003486
1.030000	-0.018406
1.030500	-0.028064
1.031000	-0.063154
1.031500	-0.046736
1.032000	-0.016796
1.032500	-0.012933
1.033000	-5.540373E-5
1.033500	-0.011645
1.034000	-0.030639
1.034500	0.029562
1.035000	0.007671
1.035500	0.002198
1.036000	0.051776
1.036500	0.083647
1.037000	0.056927
1.037500	0.021514
1.038000	-0.012611
1.038500	-0.049311
1.039000	-0.040297
1.039500	-0.028064
1.040000	-0.090518
1.040500	-0.135911
1.041000	-0.083758
1.041500	-0.076353
1.042000	-0.111766
1.042500	-0.152973
1.043000	-0.150076
1.043500	-0.089231
1.044000	-0.054462
1.044500	-0.001987
1.045000	0.056605
1.045500	0.092661
1.046000	0.079140
1.046500	0.061112
1.047000	0.080428
1.047500	0.096846
1.048000	0.106826
1.048500	0.111011
1.049000	0.122601
1.049500	0.106182
1.050000	0.084613
1.050500	0.064653
1.051000	0.057249
1.051500	0.076243
1.052000	0.125498
1.052500	0.133547
1.053000	0.072701
1.053500	-0.015508
1.054000	-0.071202
1.054500	-0.114985
1.055000	-0.175830
1.055500	-0.185810
1.056000	-0.143637
1.056500	-0.097601
1.057000	-0.079573
1.057500	-0.037078
1.058000	-0.003275
1.058500	-0.022269
1.059000	-0.028707
1.059500	-0.069593
1.060000	-0.156514
1.060500	-0.179694
1.061000	-0.193859
1.061500	-0.117239
1.062000	-0.014220
1.062500	0.034069
1.063000	0.024733
1.063500	0.009281
1.064000	0.020870
1.064500	0.017007
1.065000	-0.010357
1.065500	0.000267
1.066000	0.017973
1.066500	0.010890
1.067000	0.011856
1.067500	0.020870
1.068000	0.013466
1.068500	-0.017118
1.069000	-0.032892
1.069500	-0.079251
1.070000	-0.065730
1.070500	-0.044482
1.071000	-0.062832
1.071500	-0.071524
1.072000	-0.032892
1.072500	0.017973
1.073000	0.034391
1.073500	0.011856
1.074000	0.022802
1.074500	0.071092
1.075000	0.104573
1.075500	0.104895
1.076000	0.095880
1.076500	0.062721
1.077000	0.049844
1.077500	0.052741
1.078000	0.072057
1.078500	0.070126
1.079000	0.042118
1.079500	0.035357
1.080000	0.039542
1.080500	0.015719
1.081000	-0.031283
1.081500	-0.029673
1.082000	-0.008426
1.082500	-0.037721
1.083000	-0.101142
1.083500	-0.115629
1.084000	-0.091806
1.084500	-0.108225
1.085000	-0.172933
1.085500	-0.163275
1.086000	-0.114341
1.086500	-0.067339
1.087000	-0.017440
1.087500	0.020226
1.088000	0.063043
1.088500	0.103285
1.089000	0.114874
1.089500	0.125498
1.090000	0.093305
1.090500	0.038576
1.091000	-0.018406
1.091500	-0.049311
1.092000	-0.012611
1.092500	0.061434
1.093000	0.092017
1.093500	0.092661
1.094000	0.083969
1.094500	0.066263
1.095000	0.026665
1.095500	-0.001987
1.096000	-0.019693
1.096500	-0.070559
1.097000	-0.099532
1.097500	-0.061223
1.098000	-0.040941
1.098500	-0.016152
1.099000	-0.004562
1.099500	-0.003597
1.100000	0.015397
1.100500	-0.039331
1.101000	-0.118848
1.101500	-0.165529
1.102000	-0.107581
1.102500	-0.051243
1.103000	-0.028707
1.103500	0.029884
1.104000	0.055961
1.104500	-0.008748
1.105000	-0.027742
1.105500	-0.005206
1.106000	0.036001
1.106500	0.030206
1.107000	0.003808
1.107500	-0.057037
1.108000	-0.095025
1.108500	-0.156514
1.109000	-0.170036
1.109500	-0.117883
1.110000	-0.035790
1.110500	0.009281
1.111000	-0.024522
1.111500	-0.085689
1.112000	-0.083436
1.112500	-0.065730
1.113000	-0.036112
1.113500	0.017973
1.114000	0.057570
1.114500	0.015719
1.115000	0.009281
1.115500	0.045659
1.116000	0.038255
1.116500	0.051132
1.117000	0.070126
1.117500	0.068194
1.118000	0.049522
1.118500	0.023446
1.119000	0.026343
1.119500	0.029884
1.120000	0.043405
1.120500	0.038576
1.121000	0.007349
1.121500	0.012822
1.122000	0.064975
1.122500	0.070770
1.123000	0.048234
1.123500	-0.001665
1.124000	-0.053496
1.124500	-0.128184
1.125000	-0.140740
1.125500	-0.067339
1.126000	-0.034824
1.126500	-0.063476
1.127000	-0.102430
1.127500	-0.070237
1.128000	-0.014864
1.128500	0.039220
1.129000	0.091051
1.129500	0.098456
1.130000	0.071735
1.130500	0.040508
1.131000	0.001876
1.131500	0.005417
1.132000	0.017329
1.132500	0.023768
1.133000	0.039542
1.133500	0.037289
1.134000	0.013466
1.134500	0.004774
1.135000	-0.004562
1.135500	-0.058325
1.136000	-0.109190
1.136500	-0.171001
1.137000	-0.194502
1.137500	-0.165207
1.138000	-0.083758
1.138500	0.006705
1.139000	0.064653
1.139500	0.068838
1.140000	0.060468
1.140500	0.062399
1.141000	0.062721
1.141500	0.066585
1.142000	0.053707
1.142500	0.042118
1.143000	0.032460
1.143500	0.032782
1.144000	0.029884
1.144500	-0.009391
1.145000	-0.034824
1.145500	-0.052530
1.146000	-0.054784
1.146500	-0.060901
1.147000	-0.092128
1.147500	-0.111122
1.148000	-0.130438
1.148500	-0.104683
1.149000	-0.077319
1.149500	-0.029351
1.150000	0.036323
1.150500	0.069804
1.151000	0.109080
1.151500	0.119703
1.152000	0.102319
1.152500	0.083969
1.153000	0.065941
1.153500	0.052098
1.154000	0.012822
1.154500	-0.000699
1.155000	0.010890
1.155500	-0.000699
1.156000	-0.026776
1.156500	-0.051886
1.157000	-0.065408
1.157500	-0.091484
1.158000	-0.108547
1.158500	-0.134945
1.159000	-0.115629
1.159500	-0.106937
1.160000	-0.093416
1.160500	-0.014542
1.161000	0.072057
1.161500	0.109080
1.162000	0.111011
1.162500	0.131293
1.163000	0.120347
1.163500	0.083647
1.164000	0.044049
1.164500	0.022158
1.165000	-0.036112
1.165500	-0.107903
1.166000	-0.129472
1.166500	-0.088909
1.167000	-0.059613
1.167500	-0.091484
1.168000	-0.116595
1.168500	-0.079573
1.169000	-0.011967
1.169500	0.025055
1.170000	0.002842
1.170500	-0.035468
1.171000	-0.006172
1.171500	0.038898
1.172000	0.028919
1.172500	0.013144
1.173000	0.034069
1.173500	0.035357
1.174000	0.024090
1.174500	-0.010679
1.175000	-0.039009
1.175500	-0.091484
1.176000	-0.094703
1.176500	-0.010035
1.177000	0.045015
1.177500	0.077852
1.178000	0.058536
1.178500	0.084935
1.179000	0.081072
1.179500	0.118416
1.180000	0.119381
1.180500	0.108114
1.181000	0.050488
1.181500	-0.023235
1.182000	-0.066052
1.182500	-0.105971
1.183000	-0.131404
1.183500	-0.165207
1.184000	-0.216072
1.184500	-0.225086
1.185000	-0.190317
1.185500	-0.081504
1.186000	0.008315
1.186500	0.007027
1.187000	-0.028707
1.187500	-0.020981
1.188000	-0.000377
1.188500	0.020548
1.189000	0.037289
1.189500	0.050166
1.190000	0.060790
1.190500	0.048556
1.191000	0.041796
1.191500	0.047913
1.192000	0.043727
1.192500	0.025377
1.193000	0.012500
1.193500	-0.003597
1.194000	-0.016152
1.194500	-0.011645
1.195000	0.012822
1.195500	0.042440
1.196000	0.081715
1.196500	0.100709
1.197000	0.109080
1.197500	0.106504
1.198000	0.100387
1.198500	0.109402
1.199000	0.126786
1.199500	0.109724
1.200000	0.083647
1.200500	0.017651
1.201000	-0.019693
1.201500	-0.070237
1.202000	-0.132691
1.202500	-0.194502
1.203000	-0.249231
1.203500	-0.264362
1.204000	-0.308788
1.204500	-0.345811
1.205000	-0.286897
1.205500	-0.107259
1.206000	0.025699
1.206500	0.091051
1.207000	0.117772
1.207500	0.070126
1.208000	0.023768
1.208500	0.009603
1.209000	0.055317
1.209500	0.077530
1.210000	0.075599
1.210500	0.014753
1.211000	-0.061544
1.211500	-0.084724
1.212000	-0.047058
1.212500	-0.037078
1.213000	-0.045126
1.213500	-0.022269
1.214000	0.028275
1.214500	0.058214
1.215000	0.074633
1.215500	0.110045
1.216000	0.135478
1.216500	0.136444
1.217000	0.095880
1.217500	0.092339
1.218000	0.073989
1.218500	0.010246
1.219000	-0.091484
1.219500	-0.126897
1.220000	-0.076675
1.220500	-0.002953
1.221000	0.004452
1.221500	-0.006494
1.222000	-0.050921
1.222500	-0.043516
1.223000	-0.008104
1.223500	-0.045448
1.224000	-0.096957
1.224500	-0.106937
1.225000	-0.100498
1.225500	-0.099532
1.226000	-0.073778
1.226500	-0.043194
1.227000	-0.032249
1.227500	-0.042550
1.228000	0.003164
1.228500	0.064331
1.229000	0.081715
1.229500	0.068838
1.230000	0.008959
1.230500	-0.046736
1.231000	-0.058969
1.231500	-0.027420
1.232000	-0.002309
1.232500	-0.059613
1.233000	-0.079895
1.233500	-0.034502
1.234000	0.008315
1.234500	0.020226
1.235000	-0.000377
1.235500	-0.003919
1.236000	0.013466
1.236500	0.001554
1.237000	-0.023556
1.237500	-0.008748
1.238000	0.026343
1.238500	0.071092
1.239000	0.104251
1.239500	0.096846
1.240000	0.103285
1.240500	0.110045
1.241000	0.062078
1.241500	0.015075
1.242000	0.004130
1.242500	-0.006494
1.243000	-0.023878
1.243500	-0.031283
1.244000	-0.043194
1.244500	-0.030961
1.245000	-0.043838
1.245500	-0.047379
1.246000	-0.013898
1.246500	0.032138
1.247000	0.014753
1.247500	-0.046092
1.248000	-0.054462
1.248500	-0.067661
1.249000	-0.052852
1.249500	-0.049633
1.250000	-0.003597
1.250500	0.025377
1.251000	0.013466
1.251500	-0.042229
1.252000	-0.066052
1.252500	-0.038043
1.253000	-0.017762
1.253500	-0.075709
1.254000	-0.080217
1.254500	-0.006172
1.255000	0.026343
1.255500	0.023124
1.256000	0.051454
1.256500	0.091695
1.257000	0.148033
1.257500	0.184734
1.258000	0.172500
1.258500	0.134512
1.259000	0.073989
1.259500	0.014110
1.260000	0.013144
1.260500	0.017973
1.261000	0.005096
1.261500	0.000267
1.262000	-0.032892
1.262500	-0.074744
1.263000	-0.117239
1.263500	-0.160378
1.264000	-0.274342
1.264500	-0.357078
1.265000	-0.367380
1.265500	-0.312008
1.266000	-0.201907
1.266500	-0.096957
1.267000	-0.061223
1.267500	-0.035790
1.268000	0.004452
1.268500	0.057892
1.269000	0.086866
1.269500	0.091051
1.270000	0.102963
1.270500	0.116162
1.271000	0.089442
1.271500	0.079462
1.272000	0.088476
1.272500	0.111655
1.273000	0.113265
1.273500	0.092017
1.274000	0.069160
1.274500	0.058214
1.275000	0.044693
1.275500	0.042440
1.276000	0.042118
1.276500	0.000588
1.277000	-0.020015
1.277500	-0.048345
1.278000	-0.074100
1.278500	-0.068305
1.279000	-0.076353
1.279500	-0.090840
1.280000	-0.089874
1.280500	-0.076031
1.281000	-0.096635
1.281500	-0.108225
1.282000	-0.087943
1.282500	-0.048667
1.283000	0.017007
1.283500	0.100709
1.284000	0.123245
1.284500	0.066263
1.285000	0.042440
1.285500	0.045015
1.286000	0.017973
1.286500	-0.043838
1.287000	-0.083758
1.287500	-0.096957
1.288000	-0.092772
1.288500	-0.098245
1.289000	-0.094703
1.289500	-0.054140
1.290000	-0.020337
1.290500	-0.005528
1.291000	0.006705
1.291500	-5.540373E-5
1.292000	0.013466
1.292500	0.024090
1.293000	-0.013898
1.293500	-0.022591
1.294000	-0.004241
1.294500	0.003164
1.295000	0.027631
1.295500	0.069482
1.296000	0.085901
1.296500	0.059824
1.297000	0.037933
1.297500	0.014110
1.298000	0.042762
1.298500	0.096524
1.299000	0.104251
1.299500	0.083647
1.300000	0.061434
1.300500	0.030206
1.301000	-0.009391
1.301500	-0.058325
1.302000	-0.087299
1.302500	-0.083114
1.303000	-0.079251
1.303500	-0.080860
1.304000	-0.092128
1.304500	-0.091162
1.305000	-0.086655
1.305500	-0.105971
1.306000	-0.128184
1.306500	-0.080538
1.307000	-0.026132
1.307500	-0.034502
1.308000	-0.024844
1.308500	0.017651
1.309000	0.050810
1.309500	0.072057
1.310000	0.102641
1.310500	0.110689
1.311000	0.104573
1.311500	0.088154
1.312000	0.084935
1.312500	0.150931
1.313000	0.204372
1.313500	0.196967
1.314000	0.138054
1.314500	0.054029
1.315000	-0.021947
1.315500	-0.067339
1.316000	-0.102430
1.316500	-0.141384
1.317000	-0.174543
1.317500	-0.143315
1.318000	-0.111444
1.318500	-0.124965
1.319000	-0.112732
1.319500	-0.120458
1.320000	-0.104040
1.320500	-0.084402
1.321000	-0.057037
1.321500	-0.047701
1.322000	0.002520
1.322500	0.044371
1.323000	0.095880
1.323500	0.114874
1.324000	0.065297
1.324500	0.025055
1.325000	0.007671
1.325500	-0.014542
1.326000	-0.032892
1.326500	-0.035790
1.327000	-0.027098
1.327500	-0.020981
1.328000	0.012178
1.328500	-0.019693
1.329000	-0.142993
1.329500	-0.222189
1.330000	-0.207380
1.330500	-0.111122
1.331000	-0.015830
1.331500	0.020226
1.332000	-0.000377
1.332500	0.040830
1.333000	0.076886
1.333500	0.077208
1.334000	0.062078
1.334500	0.065619
1.335000	0.072057
1.335500	0.092339
1.336000	0.082359
1.336500	0.006705
1.337000	-0.020659
1.337500	-0.043838
1.338000	-0.063476
1.338500	-0.060257
1.339000	-0.048345
1.339500	-0.034502
1.340000	-0.003275
1.340500	0.021514
1.341000	0.032138
1.341500	-0.013577
1.342000	-0.061866
1.342500	-0.119814
1.343000	-0.179694
1.343500	-0.117561
1.344000	-0.068627
1.344500	-0.001343
1.345000	0.073345
1.345500	0.074311
1.346000	0.041474
1.346500	0.002842
1.347000	-0.003275
1.347500	0.008637
1.348000	0.013466
1.348500	0.005096
1.349000	-0.004562
1.349500	0.002198
1.350000	-0.000377
1.350500	0.002520
1.351000	-0.027420
1.351500	-0.043838
1.352000	-0.056715
1.352500	-0.036434
1.353000	-0.028064
1.353500	-0.036756
1.354000	-0.030317
1.354500	0.000910
1.355000	0.031172
1.355500	0.048878
1.356000	0.038898
1.356500	0.023446
1.357000	0.020548
1.357500	0.001232
1.358000	-0.017118
1.358500	-0.027742
1.359000	0.006061
1.359500	0.043727
1.360000	0.045659
1.360500	0.053385
1.361000	0.049200
1.361500	0.045337
1.362000	0.062078
1.362500	0.092661
1.363000	0.037289
1.363500	-0.041907
1.364000	-0.071846
1.364500	-0.057681
1.365000	-0.017762
1.365500	-0.006172
1.366000	-0.001343
1.366500	0.019261
1.367000	0.019582
1.367500	-0.005850
1.368000	0.002842
1.368500	0.041796
1.369000	-0.001987
1.369500	-0.064764
1.370000	-0.051565
1.370500	-0.034824
1.371000	-0.022913
1.371500	-0.061544
1.372000	-0.088587
1.372500	-0.081182
1.373000	-0.068949
1.373500	-0.041263
1.374000	-0.022269
1.374500	0.026987
1.375000	0.032138
1.375500	0.031172
1.376000	0.059180
1.376500	0.089764
1.377000	0.067550
1.377500	0.051454
1.378000	0.045015
1.378500	0.043084
1.379000	0.039864
1.379500	0.014110
1.380000	0.032782
1.380500	0.081715
1.381000	0.087188
1.381500	0.033747
1.382000	-0.029673
1.382500	-0.095347
1.383000	-0.139130
1.383500	-0.169714
1.384000	-0.170358
1.384500	-0.159412
1.385000	-0.165207
1.385500	-0.155549
1.386000	-0.106615
1.386500	-0.078285
1.387000	-0.080217
1.387500	-0.056715
1.388000	-0.014542
1.388500	-0.011323
1.389000	-0.015508
1.389500	0.005417
1.390000	0.058858
1.390500	0.091373
1.391000	0.084613
1.391500	0.041474
1.392000	0.012822
1.392500	-0.003275
1.393000	0.004452
1.393500	0.016041
1.394000	0.021192
1.394500	0.023124
1.395000	0.074311
1.395500	0.118738
1.396000	0.118738
1.396500	0.112943
1.397000	0.122923
1.397500	0.144492
1.398000	0.118738
1.398500	0.093305
1.399000	0.073023
1.399500	0.000267
1.400000	-0.082792
1.400500	-0.167782
1.401000	-0.175508
1.401500	-0.167782
1.402000	-0.183879
1.402500	-0.171645
1.403000	-0.128828
1.403500	-0.119170
1.404000	-0.134945
1.404500	-0.130438
1.405000	-0.098889
1.405500	-0.053496
1.406000	-0.039331
1.406500	-0.031927
1.407000	-0.015830
1.407500	0.000588
1.408000	0.006383
1.408500	0.026021
1.409000	0.041796
1.409500	0.037933
1.410000	0.067550
1.410500	0.083325
1.411000	0.054351
1.411500	0.036001
1.412000	0.030850
1.412500	0.015075
1.413000	0.009281
1.413500	0.023124
1.414000	0.034069
1.414500	0.036323
1.415000	0.042440
1.415500	0.035357
1.416000	0.012500
1.416500	0.048234
1.417000	0.051454
1.417500	0.037611
1.418000	0.049200
1.418500	0.035035
1.419000	0.009924
1.419500	0.017651
1.420000	-0.014542
1.420500	-0.065408
1.421000	-0.142349
1.421500	-0.181947
1.422000	-0.139452
1.422500	-0.023556
1.423000	0.058858
1.423500	0.061756
1.424000	0.026987
1.424500	-5.540373E-5
1.425000	-0.011323
1.425500	0.000910
1.426000	0.020870
1.426500	0.007671
1.427000	0.004774
1.427500	-0.007460
1.428000	-0.014220
1.428500	-0.044482
1.429000	-0.080538
1.429500	-0.078929
1.430000	-0.043516
1.430500	-0.030639
1.431000	-0.065086
1.431500	-0.116917
1.432000	-0.137520
1.432500	-0.118205
1.433000	-0.024844
1.433500	0.012822
1.434000	0.028919
1.434500	0.045015
1.435000	0.041474
1.435500	0.052420
1.436000	0.076564
1.436500	0.069482
1.437000	0.051132
1.437500	0.078174
1.438000	0.107470
1.438500	0.109724
1.439000	0.091695
1.439500	0.070126
1.440000	0.056927
1.440500	0.026665
1.441000	-0.000377
1.441500	-0.041585
1.442000	-0.085046
1.442500	-0.115629
1.443000	-0.143637
1.443500	-0.189030
1.444000	-0.229271
1.444500	-0.209633
1.445000	-0.149754
1.445500	-0.054462
1.446000	0.042762
1.446500	0.066263
1.447000	0.088154
1.447500	0.129683
1.448000	0.129039
1.448500	0.074955
1.449000	0.002842
1.449500	-0.026776
1.450000	-0.051565
1.450500	-0.086977
1.451000	-0.080538
1.451500	-0.029351
1.452000	-0.057037
1.452500	-0.030639
1.453000	0.005096
1.453500	0.009603
1.454000	0.042440
1.454500	0.110367
1.455000	0.119381
1.455500	0.090408
1.456000	0.067872
1.456500	0.057892
1.457000	0.039864
1.457500	-0.013255
1.458000	-0.036434
1.458500	-0.048345
1.459000	-0.056072
1.459500	-0.107259
1.460000	-0.119814
1.460500	-0.121424
1.461000	-0.143959
1.461500	-0.095991
1.462000	-0.029029
1.462500	-0.006494
1.463000	0.024733
1.463500	0.070126
1.464000	0.076243
1.464500	0.112299
1.465000	0.148677
1.465500	0.172822
1.466000	0.180549
1.466500	0.153506
1.467000	0.094271
1.467500	0.029884
1.468000	0.006383
1.468500	-0.026132
1.469000	-0.061223
1.469500	-0.084080
1.470000	-0.126253
1.470500	-0.163919
1.471000	-0.172289
1.471500	-0.161343
1.472000	-0.180337
1.472500	-0.191605
1.473000	-0.172933
1.473500	-0.111122
1.474000	-0.037078
1.474500	-0.025488
1.475000	-0.033214
1.475500	-0.028064
1.476000	0.001232
1.476500	0.066263
1.477000	0.120669
1.477500	0.100387
1.478000	0.070126
1.478500	0.071414
1.479000	0.067550
1.479500	0.056605
1.480000	0.069804
1.480500	0.062078
1.481000	0.005096
1.481500	-0.033536
1.482000	-0.024200
1.482500	0.001232
1.483000	0.013144
1.483500	0.014432
1.484000	-0.010357
1.484500	-0.038043
1.485000	-0.051243
1.485500	-0.052852
1.486000	-0.045126
1.486500	-0.013255
1.487000	-0.011967
1.487500	0.015075
1.488000	0.061112
1.488500	0.092983
1.489000	0.102319
1.489500	0.131293
1.490000	0.102319
1.490500	0.080750
1.491000	0.023124
1.491500	-0.014864
1.492000	-0.034180
1.492500	-0.022913
1.493000	-0.024200
1.493500	-0.079573
1.494000	-0.067017
1.494500	-0.061866
1.495000	-0.087299
1.495500	-0.069593
1.496000	-0.055750
1.496500	-0.087621
1.497000	-0.123355
1.497500	-0.178728
1.498000	-0.179694
1.498500	-0.077963
1.499000	0.017973
1.499500	0.043405
1.500000	0.058858
1.500500	0.087188
1.501000	0.048556
1.501500	-0.010357
1.502000	-0.039009
1.502500	-0.051243
1.503000	-0.067983
1.503500	-0.071202
1.504000	-0.065408
1.504500	-0.062832
1.505000	-0.047701
1.505500	-0.017118
1.506000	-0.000699
1.506500	-0.005528
1.507000	-0.006172
1.507500	0.024411
1.508000	0.025055
1.508500	0.019261
1.509000	0.033426
1.509500	0.050488
1.510000	0.084291
1.510500	0.108758
1.511000	0.126786
1.511500	0.153506
1.512000	0.165418
1.512500	0.144170
1.513000	0.116484
1.513500	0.127108
1.514000	0.103607
1.514500	0.041152
1.515000	-0.014864
1.515500	-0.051565
1.516000	-0.085689
1.516500	-0.085689
1.517000	-0.110800
1.517500	-0.132370
1.518000	-0.200297
1.518500	-0.248265
1.519000	-0.195146
1.519500	-0.161987
1.520000	-0.207702
1.520500	-0.205448
1.521000	-0.118205
1.521500	-0.046736
1.522000	-0.028385
1.522500	-5.540373E-5
1.523000	0.007993
1.523500	0.024090
1.524000	0.039542
1.524500	0.034069
1.525000	0.021836
1.525500	0.021514
1.526000	0.020870
1.526500	0.034069
1.527000	0.053385
1.527500	0.076886
1.528000	0.093305
1.528500	0.121635
1.529000	0.109724
1.529500	0.091051
1.530000	0.050488
1.530500	0.025377
1.531000	0.025377
1.531500	0.027309
1.532000	0.033426
1.532500	0.028275
1.533000	0.029240
1.533500	0.035679
1.534000	0.018617
1.534500	0.016363
1.535000	0.026343
1.535500	-0.005206
1.536000	-0.027098
1.536500	-0.046736
1.537000	-0.033536
1.537500	-0.029995
1.538000	-0.041263
1.538500	-0.026132
1.539000	-0.039009
1.539500	-0.066695
1.540000	-0.060257
1.540500	-0.124965
1.541000	-0.189352
1.541500	-0.215106
1.542000	-0.174543
1.542500	-0.108225
1.543000	-0.086011
1.543500	-0.025810
1.544000	0.035357
1.544500	0.083647
1.545000	0.070448
1.545500	0.023124
1.546000	-0.012289
1.546500	-0.015508
1.547000	0.009924
1.547500	0.005096
1.548000	0.019261
1.548500	0.077530
1.549000	0.116484
1.549500	0.101353
1.550000	0.078818
1.550500	0.067228
1.551000	0.029562
1.551500	-0.014542
1.552000	-0.067661
1.552500	-0.079895
1.553000	-0.040297
1.553500	-0.004884
1.554000	-0.009070
1.554500	-0.000377
1.555000	0.000910
1.555500	0.009603
1.556000	0.005096
1.556500	-0.046736
1.557000	-0.083436
1.557500	-0.096313
1.558000	-0.093738
1.558500	-0.064120
1.559000	-0.044804
1.559500	-0.063798
1.560000	-0.021947
1.560500	0.023124
1.561000	0.029884
1.561500	0.026665
1.562000	0.025055
1.562500	0.025055
1.563000	0.032782
1.563500	0.016685
1.564000	-0.024844
1.564500	-0.032249
1.565000	0.000588
1.565500	0.050810
1.566000	0.075921
1.566500	0.079462
1.567000	0.053063
1.567500	0.022480
1.568000	0.010568
1.568500	0.035035
1.569000	0.013144
1.569500	0.019261
1.570000	0.034713
1.570500	0.058858
1.571000	0.092661
1.571500	0.099422
1.572000	0.025699
1.572500	-0.043838
1.573000	-0.121102
1.573500	-0.183879
1.574000	-0.193537
1.574500	-0.204160
1.575000	-0.257279
1.575500	-0.236997
1.576000	-0.128828
1.576500	-0.024844
1.577000	0.014753
1.577500	0.045981
1.578000	0.100387
1.578500	0.121313
1.579000	0.117128
1.579500	0.107148
1.580000	0.084935
1.580500	0.068194
1.581000	0.028919
1.581500	-0.015830
1.582000	-0.039975
1.582500	-0.023878
1.583000	0.018295
1.583500	0.026343
1.584000	0.034069
1.584500	0.052741
1.585000	-5.540373E-5
1.585500	0.000910
1.586000	0.035357
1.586500	0.030528
1.587000	-0.007138
1.587500	-0.042550
1.588000	-0.059291
1.588500	-0.064442
1.589000	-0.105971
1.589500	-0.123355
1.590000	-0.130760
1.590500	-0.091806
1.591000	-0.061223
1.591500	-0.060257
1.592000	-0.060901
1.592500	-0.014864
1.593000	0.000588
1.593500	-0.000377
1.594000	0.003486
1.594500	-0.010357
1.595000	-0.001987
1.595500	0.028919
1.596000	0.054995
1.596500	0.050488
1.597000	0.026343
1.597500	0.000267
1.598000	0.001554
1.598500	0.023124
1.599000	0.023768
1.599500	0.049844
1.600000	0.057892
1.600500	0.039864
1.601000	0.011212
1.601500	-0.016152
1.602000	-0.023878
1.602500	0.004130
1.603000	0.038576
1.603500	0.015719
1.604000	-0.009391
1.604500	-0.044804
1.605000	-0.054462
1.605500	-0.070237
1.606000	-0.103396
1.606500	-0.090840
1.607000	-0.073134
1.607500	-0.055106
1.608000	-0.033536
1.608500	-0.003597
1.609000	-0.006494
1.609500	0.013144
1.610000	0.075277
1.610500	0.116806
1.611000	0.131615
1.611500	0.125176
1.612000	0.133225
1.612500	0.118416
1.613000	0.075277
1.613500	0.004130
1.614000	-0.048989
1.614500	-0.052852
1.615000	-0.009713
1.615500	-0.003919
1.616000	-0.037721
1.616500	-0.060257
1.617000	-0.080217
1.617500	-0.087621
1.618000	-0.065086
1.618500	-0.069271
1.619000	-0.068305
1.619500	-0.035146
1.620000	-0.022913
1.620500	-0.006494
1.621000	-0.002953
1.621500	0.011534
1.622000	-0.009713
1.622500	-0.004241
1.623000	-0.009391
1.623500	-0.028707
1.624000	-0.015508
1.624500	0.021836
1.625000	0.002520
1.625500	-0.029351
1.626000	-0.060901
1.626500	-0.092128
1.627000	-0.128184
1.627500	-0.100176
1.628000	-0.052852
1.628500	0.035035
1.629000	0.124532
1.629500	0.121635
1.630000	0.073345
1.630500	0.062399
1.631000	0.083647
1.631500	0.111333
1.632000	0.115840
1.632500	0.064009
1.633000	0.038255
1.633500	0.027953
1.634000	-0.038687
1.634500	-0.056715
1.635000	-0.035468
1.635500	-0.031605
1.636000	-0.085046
1.636500	-0.116595
1.637000	-0.090518
1.637500	-0.117239
1.638000	-0.128828
1.638500	-0.102108
1.639000	-0.048667
1.639500	-0.003597
1.640000	0.039542
1.640500	0.078818
1.641000	0.065941
1.641500	0.016363
1.642000	-0.041907
1.642500	-0.077319
1.643000	-0.093094
1.643500	-0.122712
1.644000	-0.101786
1.644500	-0.068627
1.645000	-0.027420
1.645500	-0.008104
1.646000	-0.030639
1.646500	-0.098889
1.647000	-0.101464
1.647500	-0.022591
1.648000	0.065941
1.648500	0.148677
1.649000	0.181836
1.649500	0.169603
1.650000	0.101675
1.650500	0.041152
1.651000	0.007671
1.651500	-0.052852
1.652000	-0.051243
1.652500	-0.037721
1.653000	-0.027420
1.653500	-0.039975
1.654000	-0.065408
1.654500	-0.076675
1.655000	-0.092450
1.655500	-0.141062
1.656000	-0.191283
1.656500	-0.161022
1.657000	-0.100820
1.657500	-0.058969
1.658000	-0.009391
1.658500	0.043084
1.659000	0.102319
1.659500	0.160267
1.660000	0.183446
1.660500	0.147390
1.661000	0.069482
1.661500	0.019582
1.662000	0.003164
1.662500	0.000910
1.663000	-0.004241
1.663500	-0.016152
1.664000	-0.031605
1.664500	-0.034180
1.665000	-0.017762
1.665500	-0.000699
1.666000	0.017973
1.666500	0.015719
1.667000	0.018939
1.667500	0.021514
1.668000	0.033104
1.668500	0.031494
1.669000	0.041152
1.669500	0.058214
1.670000	0.043727
1.670500	0.029884
1.671000	0.001554
1.671500	-0.015186
1.672000	-0.034180
1.672500	-0.053174
1.673000	-0.083436
1.673500	-0.063798
1.674000	-0.036112
1.674500	-0.025166
1.675000	-0.066052
1.675500	-0.104040
1.676000	-0.084724
1.676500	-0.076353
1.677000	-0.048345
1.677500	0.016363
1.678000	0.111011
1.678500	0.144492
1.679000	0.117450
1.679500	0.085901
1.680000	0.044693
1.680500	0.014432
1.681000	-0.037078
1.681500	-0.056394
1.682000	-0.025810
1.682500	0.040186
1.683000	0.101675
1.683500	0.091051
1.684000	0.045981
1.684500	0.009924
1.685000	0.005739
1.685500	0.017329
1.686000	-0.008748
1.686500	-0.009070
1.687000	0.054995
1.687500	0.057570
1.688000	-0.006172
1.688500	-0.039331
1.689000	-0.072812
1.689500	-0.136555
1.690000	-0.207702
1.690500	-0.253416
1.691000	-0.256313
1.691500	-0.255348
1.692000	-0.257279
1.692500	-0.204804
1.693000	-0.131082
1.693500	-0.033214
1.694000	0.047269
1.694500	0.068194
1.695000	0.108436
1.695500	0.143526
1.696000	0.121957
1.696500	0.077208
1.697000	0.084291
1.697500	0.083969
1.698000	0.075599
1.698500	0.044049
1.699000	0.011534
1.699500	-0.016474
1.700000	-0.044804
1.700500	-0.051886
1.701000	-0.087943
1.701500	-0.100498
1.702000	-0.088909
1.702500	-0.075066
1.703000	-0.043838
1.703500	-0.001665
1.704000	0.022480
1.704500	0.070448
1.705000	0.100709
1.705500	0.083969
1.706000	0.075599
1.706500	0.074311
1.707000	0.052420
1.707500	-0.004884
1.708000	-0.037400
1.708500	-0.031283
1.709000	-0.009713
1.709500	-0.013577
1.710000	-0.025810
1.710500	-0.034502
1.711000	-0.043194
1.711500	-0.039653
1.712000	-0.037400
1.712500	-0.029673
1.713000	-0.006494
1.713500	0.000588
1.714000	-0.014864
1.714500	-0.031283
1.715000	0.017007
1.715500	0.056283
1.716000	0.073989
1.716500	0.070448
1.717000	0.043727
1.717500	0.014432
1.718000	0.024411
1.718500	0.049200
1.719000	0.051776
1.719500	0.030528
1.720000	-0.017440
1.720500	-0.039009
1.721000	-0.076353
1.721500	-0.089231
1.722000	-0.114341
1.722500	-0.119170
1.723000	-0.105971
1.723500	-0.077963
1.724000	-0.071846
1.724500	-0.052530
1.725000	-0.023878
1.725500	-0.018406
1.726000	-0.041585
1.726500	0.000267
1.727000	0.059502
1.727500	0.076243
1.728000	0.070126
1.728500	0.077530
1.729000	0.039864
1.729500	0.010890
1.730000	-0.027098
1.730500	-0.064120
1.731000	-0.102752
1.731500	-0.079895
1.732000	-0.018406
1.732500	0.027631
1.733000	0.068516
1.733500	0.055961
1.734000	-5.540373E-5
1.734500	-0.012933
1.735000	0.038576
1.735500	0.082037
1.736000	0.079140
1.736500	0.025055
1.737000	-0.001987
1.737500	-0.006816
1.738000	-0.015830
1.738500	-0.013898
1.739000	-0.017762
1.739500	-0.017762
1.740000	-0.011001
1.740500	-0.028385
1.741000	-0.020337
1.741500	0.020548
1.742000	0.034391
1.742500	0.054995
1.743000	0.084291
1.743500	0.055639
1.744000	0.021192
1.744500	0.012500
1.745000	0.035035
1.745500	0.021514
1.746000	-0.058003
1.746500	-0.110478
1.747000	-0.128506
1.747500	-0.115307
1.748000	-0.098567
1.748500	-0.100820
1.749000	-0.144925
1.749500	-0.141062
1.750000	-0.091162
1.750500	-0.040941
1.751000	0.017651
1.751500	0.093949
1.752000	0.131293
1.752500	0.126464
1.753000	0.172178
1.753500	0.181514
1.754000	0.159301
1.754500	0.132903
1.755000	0.108114
1.755500	0.086222
1.756000	0.036001
1.756500	-0.009070
1.757000	-0.046092
1.757500	-0.084080
1.758000	-0.134623
1.758500	-0.188064
1.759000	-0.215106
1.759500	-0.211243
1.760000	-0.165207
1.760500	-0.106937
1.761000	-0.077641
1.761500	-0.072490
1.762000	-0.105649
1.762500	-0.103396
1.763000	-0.005206
1.763500	0.075599
1.764000	0.085901
1.764500	0.046625
1.765000	0.020870
1.765500	0.040186
1.766000	0.037611
1.766500	0.041474
1.767000	0.063365
1.767500	0.026987
1.768000	-0.025166
1.768500	-0.033214
1.769000	-0.009391
1.769500	0.015397
1.770000	-0.025488
1.770500	-0.129472
1.771000	-0.138808
1.771500	-0.069593
1.772000	0.000267
1.772500	0.021192
1.773000	-0.010035
1.773500	-0.014864
1.774000	-0.010357
1.774500	-0.053496
1.775000	-0.097279
1.775500	-0.071202
1.776000	-0.009070
1.776500	0.006061
1.777000	-0.011323
1.777500	-0.001021
1.778000	0.039220
1.778500	0.066907
1.779000	0.070770
1.779500	0.077530
1.780000	0.077208
1.780500	0.060468
1.781000	0.033426
1.781500	-0.004241
1.782000	-0.013898
1.782500	-0.036112
1.783000	-0.067983
1.783500	-0.053496
1.784000	-0.048023
1.784500	-0.059613
1.785000	-0.067983
1.785500	-0.066373
1.786000	-0.055106
1.786500	-0.049311
1.787000	-0.030639
1.787500	-0.010679
1.788000	0.016041
1.788500	0.050488
1.789000	0.094271
1.789500	0.095880
1.790000	0.030206
1.790500	-0.038687
1.791000	-0.063154
1.791500	-0.048023
1.792000	-0.022269
1.792500	-0.030639
1.793000	-0.028385
1.793500	-0.010679
1.794000	0.017973
1.794500	0.106826
1.795000	0.190207
1.795500	0.205015
1.796000	0.191172
1.796500	0.224653
1.797000	0.255237
1.797500	0.204050
1.798000	0.159623
1.798500	0.120347
1.799000	0.038255
1.799500	-0.038687
1.800000	-0.084402
1.800500	-0.130116
1.801000	-0.192571
1.801500	-0.288829
1.802000	-0.349352
1.802500	-0.364805
1.803000	-0.419855
1.803500	-0.454624
1.804000	-0.316515
1.804500	-0.090518
1.805000	0.083003
1.805500	0.144814
1.806000	0.131937
1.806500	0.130005
1.807000	0.130649
1.807500	0.110045
1.808000	0.109080
1.808500	0.077208
1.809000	0.069804
1.809500	0.060146
1.810000	0.060790
1.810500	0.034069
1.811000	-0.005206
1.811500	-0.003919
1.812000	-0.002631
1.812500	-0.038687
1.813000	-0.054462
1.813500	-0.055750
1.814000	-0.051886
1.814500	-0.074744
1.815000	-0.115307
1.815500	-0.147500
1.816000	-0.138164
1.816500	-0.093416
1.817000	-0.092128
1.817500	-0.055750
1.818000	0.040830
1.818500	0.108758
1.819000	0.151253
1.819500	0.176685
1.820000	0.148677
1.820500	0.080106
1.821000	0.033747
1.821500	0.005739
1.822000	-0.026776
1.822500	-0.028064
1.823000	-0.054784
1.823500	-0.124321
1.824000	-0.126575
1.824500	-0.061223
1.825000	0.002842
1.825500	0.055639
1.826000	0.060468
1.826500	0.021514
1.827000	-0.016474
1.827500	-0.041585
1.828000	-0.077319
1.828500	-0.050921
1.829000	-0.005206
1.829500	0.026343
1.830000	0.010246
1.830500	-0.054784
1.831000	-0.063154
1.831500	-0.039653
1.832000	-0.009713
1.832500	-0.010679
1.833000	-0.021303
1.833500	-0.003275
1.834000	0.031494
1.834500	0.039864
1.835000	0.047913
1.835500	0.038898
1.836000	0.034713
1.836500	0.053063
1.837000	0.080750
1.837500	0.073023
1.838000	0.073989
1.838500	0.052420
1.839000	0.033426
1.839500	-0.014220
1.840000	-0.067983
1.840500	-0.110478
1.841000	-0.134945
1.841500	-0.178406
1.842000	-0.207380
1.842500	-0.167782
1.843000	-0.138486
1.843500	-0.052208
1.844000	0.025699
1.844500	0.063365
1.845000	0.157691
1.845500	0.198577
1.846000	0.151897
1.846500	0.099100
1.847000	0.043727
1.847500	0.000267
1.848000	-0.039009
1.848500	-0.099211
1.849000	-0.121746
1.849500	-0.081826
1.850000	-0.002309
1.850500	0.038898
1.851000	0.037933
1.851500	0.039220
1.852000	0.073345
1.852500	0.094593
1.853000	0.101675
1.853500	0.106182
1.854000	0.106504
1.854500	0.044049
1.855000	-0.037400
1.855500	-0.094703
1.856000	-0.119492
1.856500	-0.113054
1.857000	-0.132691
1.857500	-0.154583
1.858000	-0.125287
1.858500	-0.104683
1.859000	-0.113054
1.859500	-0.171323
1.860000	-0.152651
1.860500	-0.099211
1.861000	-0.000377
1.861500	0.108758
1.862000	0.118416
1.862500	0.117450
1.863000	0.145458
1.863500	0.132259
1.864000	0.074311
1.864500	0.007027
1.865000	-0.025810
1.865500	-0.081504
1.866000	-0.096635
1.866500	-0.057681
1.867000	-0.037078
1.867500	-0.042229
1.868000	-0.035790
1.868500	-0.042550
1.869000	-0.058325
1.869500	-0.082148
1.870000	-0.109512
1.870500	-0.060579
1.871000	0.007027
1.871500	0.017973
1.872000	0.013466
1.872500	0.027953
1.873000	0.048556
1.873500	0.032138
1.874000	0.006061
1.874500	-0.050277
1.875000	-0.053818
1.875500	-0.001021
1.876000	0.045659
1.876500	0.047269
1.877000	0.006383
1.877500	-0.003275
1.878000	0.017007
1.878500	0.036001
1.879000	0.044049
1.879500	0.070448
1.880000	0.042440
1.880500	-0.012933
1.881000	-0.025166
1.881500	-0.017440
1.882000	0.020226
1.882500	0.056927
1.883000	0.064653
1.883500	0.077208
1.884000	0.069482
1.884500	0.011534
1.885000	-0.014220
1.885500	-0.016152
1.886000	-0.043194
1.886500	-0.110156
1.887000	-0.132691
1.887500	-0.105971
1.888000	-0.069915
1.888500	-0.024200
1.889000	0.063687
1.889500	0.118416
1.890000	0.147068
1.890500	0.130971
1.891000	0.106182
1.891500	0.078174
1.892000	0.040830
1.892500	0.012500
1.893000	-0.023878
1.893500	-0.066373
1.894000	-0.104040
1.894500	-0.170358
1.895000	-0.214140
1.895500	-0.232490
1.896000	-0.205126
1.896500	-0.138486
1.897000	-0.130760
1.897500	-0.168104
1.898000	-0.117239
1.898500	-0.038687
1.899000	0.019904
1.899500	0.090086
1.900000	0.106826
1.900500	0.102319
1.901000	0.094593
1.901500	0.101675
1.902000	0.091695
1.902500	0.088154
1.903000	0.071414
1.903500	0.055639
1.904000	0.054351
1.904500	0.064331
1.905000	0.056605
1.905500	0.041152
1.906000	0.017973
1.906500	-0.006494
1.907000	-0.022591
1.907500	-0.036112
1.908000	-0.037721
1.908500	-0.046736
1.909000	-0.057359
1.909500	-0.058325
1.910000	-0.015830
1.910500	0.000267
1.911000	-0.049633
1.911500	-0.035146
1.912000	0.033104
1.912500	0.049200
1.913000	0.013466
1.913500	-0.042550
1.914000	-0.070880
1.914500	-0.095669
1.915000	-0.095025
1.915500	-0.075388
1.916000	-0.036434
1.916500	0.046625
1.917000	0.115196
1.917500	0.114874
1.918000	0.032782
1.918500	-0.040941
1.919000	-0.040297
1.919500	0.018939
1.920000	0.024733
1.920500	0.005096
1.921000	-0.001665
1.921500	-0.026132
1.922000	-0.048989
1.922500	-0.050277
1.923000	-0.069593
1.923500	-0.131082
1.924000	-0.189673
1.924500	-0.164563
1.925000	-0.101786
1.925500	-0.075388
1.926000	-0.041585
1.926500	0.007027
1.927000	0.077530
1.927500	0.102963
1.928000	0.070448
1.928500	0.037611
1.929000	0.107470
1.929500	0.205015
1.930000	0.218215
1.930500	0.162520
1.931000	0.077530
1.931500	0.043727
1.932000	0.050166
1.932500	0.051776
1.933000	0.049200
1.933500	0.037611
1.934000	-0.009391
1.934500	-0.067017
1.935000	-0.097601
1.935500	-0.172611
1.936000	-0.250519
1.936500	-0.281424
1.937000	-0.213818
1.937500	-0.192249
1.938000	-0.204160
1.938500	-0.128184
1.939000	-0.030317
1.939500	0.030850
1.940000	0.080750
1.940500	0.083647
1.941000	0.072057
1.941500	0.066585
1.942000	0.074311
1.942500	0.076886
1.943000	0.054029
1.943500	0.035357
1.944000	0.030528
1.944500	0.012822
1.945000	-0.005528
1.945500	-0.013577
1.946000	-0.020981
1.946500	-0.020337
1.947000	-0.020015
1.947500	-0.005206
1.948000	-0.003919
1.948500	-0.009391
1.949000	0.036001
1.949500	0.071092
1.950000	0.041796
1.950500	0.021514
1.951000	0.024411
1.951500	0.011534
1.952000	-0.020659
1.952500	-0.023556
1.953000	0.004130
1.953500	0.020870
1.954000	-0.004884
1.954500	-0.083758
1.955000	-0.092450
1.955500	-0.042550
1.956000	-0.034180
1.956500	-0.050921
1.957000	-0.013255
1.957500	0.009924
1.958000	0.013466
1.958500	-0.023556
1.959000	-0.043838
1.959500	-0.023878
1.960000	-0.016796
1.960500	-0.023878
1.961000	-0.031283
1.961500	-0.014542
1.962000	-0.003275
1.962500	-0.016152
1.963000	-0.046736
1.963500	-0.081182
1.964000	-0.112088
1.964500	-0.141384
1.965000	-0.126253
1.965500	-0.055750
1.966000	0.037611
1.966500	0.105860
1.967000	0.124854
1.967500	0.112943
1.968000	0.080428
1.968500	0.062721
1.969000	0.060468
1.969500	0.072379
1.970000	0.054995
1.970500	0.010568
1.971000	-0.021625
1.971500	-0.053174
1.972000	-0.087299
1.972500	-0.065730
1.973000	-0.027420
1.973500	-0.056072
1.974000	-0.133335
1.974500	-0.179050
1.975000	-0.161343
1.975500	-0.133657
1.976000	-0.034824
1.976500	0.036323
1.977000	0.077852
1.977500	0.079462
1.978000	0.113909
1.978500	0.112299
1.979000	0.109724
1.979500	0.142561
1.980000	0.128396
1.980500	0.095880
1.981000	0.055639
1.981500	0.019582
1.982000	-0.004241
1.982500	-0.013898
1.983000	-0.039653
1.983500	-0.069915
1.984000	-0.096635
1.984500	-0.102430
1.985000	-0.121424
1.985500	-0.116273
1.986000	-0.105649
1.986500	-0.108547
1.987000	-0.079573
1.987500	-0.039653
1.988000	-0.004241
1.988500	0.055961
1.989000	0.081393
1.989500	0.084613
1.990000	0.052098
1.990500	0.041152
1.991000	0.025699
1.991500	0.008315
1.992000	-0.047058
1.992500	-0.046414
1.993000	-0.015508
1.993500	0.000267
1.994000	-0.008748
1.994500	-0.023235
1.995000	-0.043516
1.995500	-0.043838
1.996000	-0.031605
1.996500	-0.017762
1.997000	0.017973
1.997500	0.046625
1.998000	0.065297
1.998500	0.082681
1.999000	0.085257
1.999500	0.047591
2.000000	0.032782
2.000500	0.014753
2.001000	-0.002309
2.001500	-0.038043
2.002000	-0.065086
2.002500	-0.073134
2.003000	-0.031605
2.003500	0.005417
2.004000	0.005417
2.004500	0.002520
2.005000	0.024411
2.005500	0.077852
2.006000	0.063687
2.006500	-0.017762
2.007000	-0.121424
2.007500	-0.158768
2.008000	-0.125609
2.008500	-0.105327
2.009000	-0.099854
2.009500	-0.111122
2.010000	-0.107581
2.010500	-0.113054
2.011000	-0.094703
2.011500	-0.067339
2.012000	-0.044482
2.012500	-0.021303
2.013000	0.030850
2.013500	0.053707
2.014000	0.099100
2.014500	0.125498
2.015000	0.122601
2.015500	0.073023
2.016000	0.005417
2.016500	-0.016796
2.017000	-0.004562
2.017500	-0.001665
2.018000	-0.001665
2.018500	-0.002309
2.019000	0.025699
2.019500	0.066263
2.020000	0.093949
2.020500	0.129361
2.021000	0.139019
2.021500	0.139341
2.022000	0.136122
2.022500	0.101997
2.023000	0.049844
2.023500	0.026665
2.024000	0.020548
2.024500	-0.007138
2.025000	-0.029995
2.025500	-0.039975
2.026000	-0.051886
2.026500	-0.107581
2.027000	-0.236997
2.027500	-0.309110
2.028000	-0.216072
2.028500	-0.107903
2.029000	-0.083114
2.029500	-0.031283
2.030000	0.056605
2.030500	0.120025
2.031000	0.161555
2.031500	0.154794
2.032000	0.074955
2.032500	-0.064764
2.033000	-0.137842
2.033500	-0.102108
2.034000	-0.084080
2.034500	-0.076353
2.035000	-0.058003
2.035500	-0.029673
2.036000	0.015719
2.036500	0.078174
2.037000	0.061756
2.037500	-0.044482
2.038000	-0.108868
2.038500	-0.102108
2.039000	-0.094382
2.039500	-0.074744
2.040000	-0.055750
2.040500	-0.044804
2.041000	-0.064120
2.041500	-0.043194
2.042000	-0.021947
2.042500	-0.021303
2.043000	-0.042550
2.043500	-0.087299
2.044000	-0.080217
2.044500	-0.047701
2.045000	-0.020337
2.045500	-0.005850
2.046000	0.027631
2.046500	0.059180
2.047000	0.068194
2.047500	0.074633
2.048000	0.079140
2.048500	0.055317
2.049000	0.025699
2.049500	0.008959
2.050000	0.015075
2.050500	-0.006494
2.051000	-0.045770
2.051500	-0.039331
2.052000	0.010246
2.052500	0.061112
2.053000	0.112299
2.053500	0.134512
2.054000	0.132903
2.054500	0.107148
2.055000	0.069160
2.055500	0.057570
2.056000	0.036323
2.056500	-0.000377
2.057000	-0.036434
2.057500	-0.057681
2.058000	-0.041907
2.058500	-0.050921
2.059000	-0.085689
2.059500	-0.097923
2.060000	-0.095669
2.060500	-0.106937
2.061000	-0.103718
2.061500	-0.067339
2.062000	-0.022269
2.062500	0.013788
2.063000	0.027953
2.063500	0.019582
2.064000	-0.009713
2.064500	-0.018727
2.065000	-0.012289
2.065500	-0.053818
2.066000	-0.084724
2.066500	-0.080217
2.067000	-0.020659
2.067500	0.002198
2.068000	-0.010679
2.068500	-0.057681
2.069000	-0.080217
2.069500	-0.062832
2.070000	-0.048023
2.070500	-0.004884
2.071000	0.054351
2.071500	0.102641
2.072000	0.098778
2.072500	0.090730
2.073000	0.094915
2.073500	0.075277
2.074000	0.059824
2.074500	0.022480
2.075000	-0.030317
2.075500	-0.070880
2.076000	-0.063154
2.076500	-0.030961
2.077000	-0.016474
2.077500	-0.013255
2.078000	-0.009070
2.078500	-0.008104
2.079000	-0.045770
2.079500	-0.069915
2.080000	-0.079251
2.080500	-0.089874
2.081000	-0.099211
2.081500	-0.104683
2.082000	-0.024522
2.082500	0.018617
2.083000	0.048234
2.083500	0.027631
2.084000	0.005739
2.084500	0.009603
2.085000	0.052098
2.085500	0.093627
2.086000	0.121957
2.086500	0.096524
2.087000	0.061112
2.087500	0.010890
2.088000	-0.062188
2.088500	-0.070880
2.089000	-0.059291
2.089500	-0.039975
2.090000	-0.031283
2.090500	-0.072168
2.091000	-0.073456
2.091500	-0.044160
2.092000	-0.030639
2.092500	0.003808
2.093000	0.057892
2.093500	0.096846
2.094000	0.096846
2.094500	0.060790
2.095000	0.039542
2.095500	0.034391
2.096000	0.002520
2.096500	-0.030317
2.097000	-0.020015
2.097500	-0.020981
2.098000	-0.015186
2.098500	-0.011967
2.099000	-0.030961
2.099500	-0.048023
2.100000	-0.083758
2.100500	-0.091162
2.101000	-0.106615
2.101500	-0.109190
2.102000	-0.067339
2.102500	-0.037400
2.103000	-0.028064
2.103500	-0.028707
2.104000	-0.046736
2.104500	-0.064120
2.105000	-0.035468
2.105500	0.000910
2.106000	0.016041
2.106500	0.015075
2.107000	-0.007138
2.107500	-0.016796
2.108000	-0.039653
2.108500	-0.061544
2.109000	-0.052852
2.109500	-0.011967
2.110000	0.040186
2.110500	0.056283
2.111000	0.096846
2.111500	0.156082
2.112000	0.202118
2.112500	0.190529
2.113000	0.149643
2.113500	0.133547
2.114000	0.104895
2.114500	0.062399
2.115000	0.012178
2.115500	-0.029351
2.116000	-0.052530
2.116500	-0.048023
2.117000	-0.070880
2.117500	-0.122068
2.118000	-0.130116
2.118500	-0.117883
2.119000	-0.083758
2.119500	-0.075388
2.120000	-0.091162
2.120500	-0.069915
2.121000	-0.016152
2.121500	0.011212
2.122000	-0.000699
2.122500	-0.042872
2.123000	-0.061866
2.123500	-0.081182
2.124000	-0.093094
2.124500	-0.084724
2.125000	-0.010679
2.125500	0.043084
2.126000	0.038576
2.126500	-0.003275
2.127000	-0.021947
2.127500	-0.029995
2.128000	-0.001987
2.128500	0.045981
2.129000	0.090086
2.129500	0.107148
2.130000	0.079140
2.130500	0.061756
2.131000	0.004130
2.131500	-0.063476
2.132000	-0.098245
2.132500	-0.095025
2.133000	-0.060579
2.133500	-0.075709
2.134000	-0.058325
2.134500	-0.027420
2.135000	0.002520
2.135500	-0.012611
2.136000	-0.011967
2.136500	0.020226
2.137000	0.036323
2.137500	0.052098
2.138000	0.083969
2.138500	0.073989
2.139000	0.050166
2.139500	0.011534
2.140000	-0.005206
2.140500	0.008959
2.141000	0.026665
2.141500	-0.010035
2.142000	-0.018406
2.142500	-0.057681
2.143000	-0.111122
2.143500	-0.117561
2.144000	-0.179050
2.144500	-0.164241
2.145000	-0.063798
2.145500	-0.013577
2.146000	0.016685
2.146500	0.042440
2.147000	0.063365
2.147500	0.062078
2.148000	0.066907
2.148500	0.055639
2.149000	-0.026454
2.149500	-0.047379
2.150000	-0.004241
2.150500	0.039864
2.151000	0.053385
2.151500	0.070770
2.152000	0.078174
2.152500	0.052741
2.153000	-0.009713
2.153500	-0.069593
2.154000	-0.107259
2.154500	-0.106937
2.155000	-0.103396
2.155500	-0.082148
2.156000	-0.062510
2.156500	-0.080538
2.157000	-0.108225
2.157500	-0.109512
2.158000	-0.056394
2.158500	-0.001021
2.159000	0.030850
2.159500	0.041474
2.160000	0.044693
2.160500	0.041152
2.161000	0.051776
2.161500	0.049844
2.162000	0.045337
2.162500	0.020226
2.163000	-0.004241
2.163500	-0.043516
2.164000	-0.031283
2.164500	0.009924
2.165000	0.049844
2.165500	0.060790
2.166000	0.071414
2.166500	0.086222
2.167000	0.069804
2.167500	0.049200
2.168000	0.066907
2.168500	0.061112
2.169000	0.048556
2.169500	0.028919
2.170000	-0.005206
2.170500	-0.051243
2.171000	-0.087299
2.171500	-0.082792
2.172000	-0.056715
2.172500	-0.067983
2.173000	-0.055428
2.173500	-0.023235
2.174000	-0.033858
2.174500	-0.063476
2.175000	-0.065086
2.175500	-0.054140
2.176000	-0.014220
2.176500	0.001876
2.177000	0.005096
2.177500	-0.010357
2.178000	0.010246
2.178500	0.039542
2.179000	0.026665
2.179500	0.007027
2.180000	-0.017440
2.180500	-0.033858
2.181000	-0.032249
2.181500	-0.021303
2.182000	-0.027098
2.182500	0.017973
2.183000	0.094593
2.183500	0.128074
2.184000	0.114231
2.184500	0.073345
2.185000	0.027631
2.185500	0.026343
2.186000	0.000910
2.186500	-0.055750
2.187000	-0.082148
2.187500	-0.076997
2.188000	-0.079573
2.188500	-0.114341
2.189000	-0.127541
2.189500	-0.125931
2.190000	-0.138808
2.190500	-0.164885
2.191000	-0.130116
2.191500	-0.096635
2.192000	-0.069271
2.192500	-0.039975
2.193000	0.008315
2.193500	0.057570
2.194000	0.092983
2.194500	0.113265
2.195000	0.094915
2.195500	0.075921
2.196000	0.075599
2.196500	0.078496
2.197000	0.102963
2.197500	0.119060
2.198000	0.118094
2.198500	0.083969
2.199000	0.067872
2.199500	0.068194
2.200000	0.037289
2.200500	0.007349
2.201000	-0.020337
2.201500	-0.056394
2.202000	-0.077963
2.202500	-0.069593
2.203000	-0.087621
2.203500	-0.081182
2.204000	-0.103074
2.204500	-0.103074
2.205000	-0.096635
2.205500	-0.102430
2.206000	-0.061544
2.206500	-0.071846
2.207000	-0.099854
2.207500	-0.086977
2.208000	-0.058325
2.208500	-0.072490
2.209000	-0.033858
2.209500	0.034069
2.210000	0.083325
2.210500	0.078174
2.211000	0.079462
2.211500	0.059180
2.212000	0.064331
2.212500	0.069160
2.213000	0.053707
2.213500	0.034391
2.214000	0.037611
2.214500	0.032138
2.215000	0.031494
2.215500	0.044371
2.216000	0.086222
2.216500	0.060790
2.217000	0.014753
2.217500	-0.046736
2.218000	-0.131726
2.218500	-0.151685
2.219000	-0.099532
2.219500	-0.049955
2.220000	-0.051243
2.220500	-0.067983
2.221000	-0.080538
2.221500	-0.044482
2.222000	-0.066052
2.222500	-0.082470
2.223000	-0.081826
2.223500	-0.082792
2.224000	-0.115307
2.224500	-0.147500
2.225000	-0.093094
2.225500	0.009281
2.226000	0.081715
2.226500	0.121313
2.227000	0.117450
2.227500	0.094593
2.228000	0.077208
2.228500	0.067550
2.229000	0.040830
2.229500	0.001554
2.230000	-0.008104
2.230500	0.028919
2.231000	0.065941
2.231500	0.057892
2.232000	0.035035
2.232500	0.026021
2.233000	0.020226
2.233500	0.064009
2.234000	0.112943
2.234500	0.109724
2.235000	0.060790
2.235500	0.042762
2.236000	-0.002631
2.236500	-0.051886
2.237000	-0.072812
2.237500	-0.090196
2.238000	-0.102752
2.238500	-0.141062
2.239000	-0.143959
2.239500	-0.105971
2.240000	-0.015830
2.240500	-0.004884
2.241000	-0.010035
2.241500	0.054995
2.242000	0.140307
2.242500	0.161877
2.243000	0.174110
2.243500	0.122279
2.244000	0.031172
2.244500	-0.010679
2.245000	-0.096957
2.245500	-0.173577
2.246000	-0.235388
2.246500	-0.256957
2.247000	-0.256313
2.247500	-0.228627
2.248000	-0.170679
2.248500	-0.095347
2.249000	-0.047058
2.249500	0.011534
2.250000	0.015075
2.250500	0.044049
2.251000	0.065619
2.251500	0.022158
2.252000	-0.003597
2.252500	0.033426
2.253000	0.078496
2.253500	0.073667
2.254000	0.052420
2.254500	0.090730
2.255000	0.101997
2.255500	0.073345
2.256000	0.055317
2.256500	0.041474
2.257000	0.018295
2.257500	-0.001343
2.258000	0.002198
2.258500	0.022480
2.259000	0.014432
2.259500	-0.043838
2.260000	-0.094382
2.260500	-0.119814
2.261000	-0.134623
2.261500	-0.166494
2.262000	-0.151042
2.262500	-0.071846
2.263000	0.023124
2.263500	0.066585
2.264000	0.061112
2.264500	0.038576
2.265000	0.039542
2.265500	0.025699
2.266000	0.004452
2.266500	-0.029029
2.267000	-0.069593
2.267500	-0.104040
2.268000	-0.084402
2.268500	-0.033858
2.269000	0.014432
2.269500	0.059824
2.270000	0.022480
2.270500	-0.054784
2.271000	-0.030317
2.271500	0.056283
2.272000	0.095880
2.272500	0.072701
2.273000	0.028597
2.273500	0.034713
2.274000	0.078174
2.274500	0.058536
2.275000	0.032782
2.275500	0.036001
2.276000	0.069160
2.276500	0.082037
2.277000	0.043084
2.277500	-0.024844
2.278000	-0.084724
2.278500	-0.109190
2.279000	-0.050921
2.279500	-0.045448
2.280000	-0.103396
2.280500	-0.111444
2.281000	-0.070880
2.281500	-0.037721
2.282000	-0.046092
2.282500	-0.076353
2.283000	-0.104683
2.283500	-0.075066
2.284000	-0.048023
2.284500	-0.060579
2.285000	-0.029995
2.285500	0.038898
2.286000	0.087510
2.286500	0.073345
2.287000	0.015719
2.287500	-0.042872
2.288000	-0.049633
2.288500	-0.036112
2.289000	-0.016796
2.289500	0.000910
2.290000	0.005096
2.290500	0.015719
2.291000	0.022802
2.291500	0.029240
2.292000	0.049844
2.292500	0.077852
2.293000	0.103285
2.293500	0.120347
2.294000	0.082681
2.294500	0.034713
2.295000	0.040186
2.295500	0.073667
2.296000	0.033104
2.296500	-0.022269
2.297000	-0.042872
2.297500	-0.043516
2.298000	-0.048023
2.298500	-0.042550
2.299000	-0.050277
2.299500	-0.047379
2.300000	-0.029351
2.300500	0.005739
2.301000	0.026021
2.301500	0.009603
2.302000	-0.014864
2.302500	-0.035790
2.303000	-0.050921
2.303500	-0.061866
2.304000	-0.080860
2.304500	-0.112410
2.305000	-0.105649
2.305500	-0.076031
2.306000	-0.058969
2.306500	-0.070880
2.307000	-0.076031
2.307500	-0.059613
2.308000	-0.034180
2.308500	-0.022269
2.309000	-0.003275
2.309500	0.048556
2.310000	0.076886
2.310500	0.068516
2.311000	0.061112
2.311500	0.046947
2.312000	0.039220
2.312500	0.012500
2.313000	-0.010357
2.313500	-0.011001
2.314000	-0.039653
2.314500	-0.043516
2.315000	-0.005850
2.315500	0.030206
2.316000	0.030528
2.316500	0.008959
2.317000	-0.015508
2.317500	-0.026776
2.318000	-0.008748
2.318500	0.060146
2.319000	0.078496
2.319500	0.058214
2.320000	0.024733
2.320500	0.010246
2.321000	-0.010035
2.321500	-0.017118
2.322000	0.013788
2.322500	0.025377
2.323000	-0.003919
2.323500	-0.029995
2.324000	-0.050599
2.324500	-0.073778
2.325000	-0.096635
2.325500	-0.077963
2.326000	-0.032892
2.326500	0.039542
2.327000	0.043084
2.327500	0.006383
2.328000	0.008959
2.328500	0.027309
2.329000	-0.006494
2.329500	-0.032249
2.330000	-0.027742
2.330500	-0.014220
2.331000	-0.044804
2.331500	-0.070237
2.332000	-0.087299
2.332500	-0.074422
2.333000	-0.038365
2.333500	-0.007782
2.334000	-0.004884
2.334500	0.029240
2.335000	0.076886
2.335500	0.086222
2.336000	0.008959
2.336500	-0.048667
2.337000	-0.076997
2.337500	-0.084724
2.338000	-0.046092
2.338500	-0.004241
2.339000	0.003164
2.339500	0.009603
2.340000	0.019904
2.340500	-0.004241
2.341000	-0.025488
2.341500	-0.009070
2.342000	0.055317
2.342500	0.037289
2.343000	-0.072490
2.343500	-0.101142
2.344000	-0.068627
2.344500	-0.061223
2.345000	-0.004241
2.345500	0.019582
2.346000	0.012822
2.346500	-0.009713
2.347000	-0.018406
2.347500	-0.042550
2.348000	-0.053818
2.348500	-0.025488
2.349000	0.009924
2.349500	0.017973
2.350000	0.040508
2.350500	0.055317
2.351000	0.040830
2.351500	0.018295
2.352000	-0.014542
2.352500	-0.030639
2.353000	-0.014220
2.353500	0.004774
2.354000	0.023124
2.354500	0.058536
2.355000	0.103285
2.355500	0.144814
2.356000	0.135156
2.356500	0.152862
2.357000	0.159301
2.357500	0.127430
2.358000	0.106504
2.358500	0.046303
2.359000	0.000267
2.359500	-0.037078
2.360000	-0.046736
2.360500	-0.083436
2.361000	-0.155549
2.361500	-0.229593
2.362000	-0.263396
2.362500	-0.249231
2.363000	-0.206414
2.363500	-0.155871
2.364000	-0.115307
2.364500	-0.013898
2.365000	0.087832
2.365500	0.132259
2.366000	0.127752
2.366500	0.103285
2.367000	0.003164
2.367500	-0.086333
2.368000	-0.136877
2.368500	-0.124321
2.369000	-0.103074
2.369500	-0.066052
2.370000	-0.068305
2.370500	-0.069915
2.371000	-0.046736
2.371500	0.001554
2.372000	0.042440
2.372500	0.048234
2.373000	0.044693
2.373500	0.019582
2.374000	0.012178
2.374500	0.024090
2.375000	0.035679
2.375500	0.059180
2.376000	0.083969
2.376500	0.091695
2.377000	0.085257
2.377500	0.070770
2.378000	0.049200
2.378500	0.060468
2.379000	0.059824
2.379500	0.054995
2.380000	0.030528
2.380500	0.008315
2.381000	0.025377
2.381500	0.037611
2.382000	0.040830
2.382500	0.062399
2.383000	0.011856
2.383500	-0.030317
2.384000	-0.048023
2.384500	-0.098567
2.385000	-0.121424
2.385500	-0.086011
2.386000	-0.049955
2.386500	-0.058325
2.387000	-0.114019
2.387500	-0.126897
2.388000	-0.138486
2.388500	-0.108547
2.389000	-0.067339
2.389500	-0.025488
2.390000	-0.001987
2.390500	-0.008426
2.391000	0.040508
2.391500	0.093305
2.392000	0.079462
2.392500	0.026987
2.393000	-0.017762
2.393500	-0.046414
2.394000	-0.065086
2.394500	-0.041263
2.395000	-0.029029
2.395500	-0.026776
2.396000	-0.005528
2.396500	-0.023556
2.397000	-0.059613
2.397500	-0.086333
2.398000	-0.106293
2.398500	-0.129472
2.399000	-0.134945
2.399500	-0.099532
2.400000	-0.044482
2.400500	0.019582
2.401000	0.059824
2.401500	0.064975
2.402000	0.057892
2.402500	0.033747
2.403000	0.004130
2.403500	-0.026132
2.404000	-0.031927
2.404500	-0.023556
2.405000	0.014432
2.405500	0.053063
2.406000	0.092017
2.406500	0.107148
2.407000	0.086866
2.407500	0.064653
2.408000	0.032138
2.408500	0.009281
2.409000	0.013466
2.409500	0.014110
2.410000	0.003486
2.410500	-0.033214
2.411000	-0.042872
2.411500	0.026021
2.412000	0.106182
2.412500	0.117128
2.413000	0.027953
2.413500	-0.025166
2.414000	-0.009713
2.414500	0.023124
2.415000	0.039542
2.415500	0.038576
2.416000	0.012822
2.416500	-0.007782
2.417000	-0.005850
2.417500	-0.037400
2.418000	-0.041263
2.418500	-0.050277
2.419000	-0.064120
2.419500	-0.073134
2.420000	-0.100820
2.420500	-0.093094
2.421000	-0.071202
2.421500	-0.071202
2.422000	-0.038687
2.422500	-0.019049
2.423000	-0.029351
2.423500	-0.028385
2.424000	-0.035146
2.424500	-0.016474
2.425000	0.004774
2.425500	-0.013577
2.426000	-0.008748
2.426500	0.012178
2.427000	0.039542
2.427500	0.072057
2.428000	0.081393
2.428500	0.071735
2.429000	0.044049
2.429500	0.012822
2.430000	0.030528
2.430500	0.073023
2.431000	0.063365
2.431500	0.005417
2.432000	-0.041585
2.432500	-0.121102
2.433000	-0.221223
2.433500	-0.207380
2.434000	-0.108547
2.434500	-0.061223
2.435000	-0.071524
2.435500	-0.067339
2.436000	-0.024522
2.436500	-0.003919
2.437000	-0.001987
2.437500	0.012822
2.438000	0.021514
2.438500	0.023446
2.439000	0.040186
2.439500	0.072379
2.440000	0.090086
2.440500	0.070126
2.441000	0.020870
2.441500	-0.001021
2.442000	0.018617
2.442500	0.028919
2.443000	0.004774
2.443500	-0.047058
2.444000	-0.056072
2.444500	-0.021625
2.445000	0.003164
2.445500	0.011212
2.446000	-0.005206
2.446500	-0.035146
2.447000	-0.067339
2.447500	-0.105971
2.448000	-0.086977
2.448500	-0.004562
2.449000	0.045981
2.449500	-0.017118
2.450000	-0.071202
2.450500	-0.039331
2.451000	0.011534
2.451500	0.042762
2.452000	0.029240
2.452500	-0.021625
2.453000	-0.065408
2.453500	-0.049633
2.454000	-0.028707
2.454500	-0.013898
2.455000	-0.030961
2.455500	-0.048667
2.456000	-0.043194
2.456500	-0.023878
2.457000	-0.006172
2.457500	-0.011323
2.458000	-0.009070
2.458500	0.005739
2.459000	0.033747
2.459500	0.047913
2.460000	0.063365
2.460500	0.072057
2.461000	0.059824
2.461500	0.060146
2.462000	0.086866
2.462500	0.113265
2.463000	0.097812
2.463500	0.046947
2.464000	0.007027
2.464500	-0.029351
2.465000	-0.043194
2.465500	-0.052530
2.466000	-0.070237
2.466500	-0.072168
2.467000	0.002198
2.467500	0.059502
2.468000	0.066585
2.468500	0.033104
2.469000	0.027631
2.469500	0.045981
2.470000	0.053385
2.470500	0.043727
2.471000	0.017329
2.471500	-0.016152
2.472000	-0.064120
2.472500	-0.097923
2.473000	-0.123677
2.473500	-0.162309
2.474000	-0.185166
2.474500	-0.167138
2.475000	-0.113697
2.475500	-0.101786
2.476000	-0.133013
2.476500	-0.090518
2.477000	-0.014542
2.477500	0.042762
2.478000	0.080428
2.478500	0.090086
2.479000	0.117128
2.479500	0.097490
2.480000	0.052098
2.480500	-0.010035
2.481000	-0.059291
2.481500	-0.095669
2.482000	-0.085046
2.482500	-0.059291
2.483000	-0.038365
2.483500	-0.002309
2.484000	0.025699
2.484500	0.056283
2.485000	0.057249
2.485500	0.042440
2.486000	0.054351
2.486500	0.069482
2.487000	0.037933
2.487500	0.000910
2.488000	-0.025166
2.488500	-0.020337
2.489000	-0.003597
2.489500	0.006061
2.490000	-0.020659
2.490500	-0.027742
2.491000	-0.038043
2.491500	-0.068949
2.492000	-0.061544
2.492500	-0.039331
2.493000	-0.053174
2.493500	-0.090840
2.494000	-0.090518
2.494500	-0.051243
2.495000	0.008959
2.495500	0.062721
2.496000	0.087510
2.496500	0.081393
2.497000	0.074633
2.497500	0.075921
2.498000	0.061434
2.498500	0.058536
2.499000	0.051132
2.499500	0.039542
2.500000	0.031494
2.500500	0.040186
2.501000	0.025699
2.501500	0.006383
2.502000	-0.034824
2.502500	-0.053174
2.503000	-0.086655
2.503500	-0.145569
2.504000	-0.199975
2.504500	-0.165850
2.505000	-0.090840
2.505500	-0.023556
2.506000	-0.006494
2.506500	-0.037400
2.507000	-0.038043
2.507500	-0.049311
2.508000	-0.058003
2.508500	-0.039975
2.509000	0.007993
2.509500	0.052741
2.510000	0.084613
2.510500	0.084291
2.511000	0.058536
2.511500	0.022802
2.512000	-0.003597
2.512500	-0.057681
2.513000	-0.119170
2.513500	-0.104361
2.514000	-0.026776
2.514500	-0.001021
2.515000	0.038898
2.515500	0.084935
2.516000	0.103285
2.516500	0.078496
2.517000	0.067872
2.517500	0.057249
2.518000	0.032782
2.518500	0.003164
2.519000	-0.026454
2.519500	-0.036112
2.520000	-0.041585
2.520500	-0.065086
2.521000	-0.085046
2.521500	-0.084724
2.522000	-0.093416
2.522500	-0.127541
2.523000	-0.113697
2.523500	-0.047379
2.524000	0.015397
2.524500	0.053385
2.525000	0.101997
2.525500	0.116162
2.526000	0.069804
2.526500	0.014753
2.527000	0.014110
2.527500	0.047591
2.528000	0.057570
2.528500	0.071414
2.529000	0.039542
2.529500	0.000588
2.530000	-0.036112
2.530500	-0.096313
2.531000	-0.132370
2.531500	-0.087299
2.532000	-0.071524
2.532500	-0.088587
2.533000	-0.119814
2.533500	-0.124321
2.534000	-0.084402
2.534500	-0.029351
2.535000	0.045015
2.535500	0.091051
2.536000	0.070126
2.536500	0.012822
2.537000	-0.033214
2.537500	-0.018406
2.538000	-0.002309
2.538500	-0.008104
2.539000	-0.011001
2.539500	-0.005206
2.540000	0.005417
2.540500	-0.008426
2.541000	-0.016474
2.541500	-0.016152
2.542000	-0.033214
2.542500	-0.020337
2.543000	0.029884
2.543500	0.044371
2.544000	0.042762
2.544500	0.074955
2.545000	0.139019
2.545500	0.189563
2.546000	0.183768
2.546500	0.168637
2.547000	0.169281
2.547500	0.145780
2.548000	0.086222
2.548500	0.021836
2.549000	-0.037721
2.549500	-0.078607
2.550000	-0.138486
2.550500	-0.183557
2.551000	-0.187742
2.551500	-0.182913
2.552000	-0.178084
2.552500	-0.194824
2.553000	-0.200619
2.553500	-0.128184
2.554000	-0.039653
2.554500	-0.016796
2.555000	-0.016474
2.555500	0.007671
2.556000	0.002520
2.556500	-0.045448
2.557000	-0.043838
2.557500	-0.028064
2.558000	0.019261
2.558500	0.091373
2.559000	0.094915
2.559500	0.035679
2.560000	0.000910
2.560500	0.004452
2.561000	-0.010679
2.561500	-0.037721
2.562000	-0.045448
2.562500	-0.005206
2.563000	0.030850
2.563500	0.047591
2.564000	0.033104
2.564500	-0.001987
2.565000	-0.051886
2.565500	-0.089874
2.566000	-0.100498
2.566500	-0.080860
2.567000	-0.035790
2.567500	0.018939
2.568000	0.073345
2.568500	0.092661
2.569000	0.032782
2.569500	-0.044160
2.570000	-0.095025
2.570500	-0.087943
2.571000	-0.076675
2.571500	-0.046414
2.572000	-0.032892
2.572500	-0.026776
2.573000	-0.022269
2.573500	0.006383
2.574000	0.032138
2.574500	0.043405
2.575000	0.023768
2.575500	0.001232
2.576000	-0.003597
2.576500	0.011534
2.577000	0.025377
2.577500	0.035357
2.578000	0.040508
2.578500	0.049200
2.579000	0.015397
2.579500	-0.018406
2.580000	-0.014864
2.580500	-0.008748
2.581000	-0.016796
2.581500	0.009603
2.582000	0.052420
2.582500	0.055317
2.583000	0.026021
2.583500	-0.019693
2.584000	-0.051886
2.584500	-0.017762
2.585000	0.013788
2.585500	0.013788
2.586000	0.027309
2.586500	0.034391
2.587000	0.000910
2.587500	-0.047701
2.588000	-0.080538
2.588500	-0.060901
2.589000	-0.034502
2.589500	-0.010035
2.590000	-0.003275
2.590500	0.026665
2.591000	0.046625
2.591500	0.028597
2.592000	-0.023556
2.592500	-0.093094
2.593000	-0.128184
2.593500	-0.142349
2.594000	-0.085046
2.594500	0.013466
2.595000	0.109080
2.595500	0.181192
2.596000	0.155760
2.596500	0.107148
2.597000	0.068516
2.597500	0.057249
2.598000	0.061112
2.598500	0.075277
2.599000	0.024411
2.599500	-0.048345
2.600000	-0.085689
2.600500	-0.105971
2.601000	-0.112088
2.601500	-0.160378
2.602000	-0.207058
2.602500	-0.219613
2.603000	-0.196112
2.603500	-0.164241
2.604000	-0.125609
2.604500	-0.071524
2.605000	0.002842
2.605500	0.067228
2.606000	0.131937
2.606500	0.153506
2.607000	0.101675
2.607500	0.024411
2.608000	-0.017118
2.608500	0.005417
2.609000	0.072701
2.609500	0.135478
2.610000	0.148677
2.610500	0.114231
2.611000	0.066263
2.611500	0.047913
2.612000	0.021514
2.612500	0.014432
2.613000	0.008637
2.613500	0.019261
2.614000	0.014432
2.614500	-0.016796
2.615000	-0.060579
2.615500	-0.074422
2.616000	-0.062510
2.616500	-0.038043
2.617000	-0.082792
2.617500	-0.204482
2.618000	-0.264362
2.618500	-0.155549
2.619000	-0.006816
2.619500	0.066263
2.620000	0.054351
2.620500	0.030206
2.621000	-0.017118
2.621500	-0.108225
2.622000	-0.115629
2.622500	0.002520
2.623000	0.073023
2.623500	0.104895
2.624000	0.106504
2.624500	0.026343
2.625000	-0.038687
2.625500	-0.035146
2.626000	0.025699
2.626500	0.073989
2.627000	0.109402
2.627500	0.078174
2.628000	0.031816
2.628500	-0.022591
2.629000	-0.086655
2.629500	-0.121746
2.630000	-0.104040
2.630500	-0.053174
2.631000	-0.030317
2.631500	-0.095991
2.632000	-0.123355
2.632500	-0.080217
2.633000	-0.058325
2.633500	-0.046414
2.634000	-0.033858
2.634500	-0.029351
2.635000	-0.069271
2.635500	-0.080217
2.636000	-0.061223
2.636500	0.000588
2.637000	0.043727
2.637500	0.036001
2.638000	0.012822
2.638500	0.015075
2.639000	0.030528
2.639500	0.037611
2.640000	0.051454
2.640500	0.043405
2.641000	0.022480
2.641500	0.013788
2.642000	0.008315
2.642500	0.001554
2.643000	-0.010035
2.643500	-0.021947
2.644000	-0.026776
2.644500	-0.023878
2.645000	-0.008426
2.645500	-0.002309
2.646000	-0.011645
2.646500	-0.013577
2.647000	0.017329
2.647500	0.023768
2.648000	0.048556
2.648500	0.102319
2.649000	0.147068
2.649500	0.135478
2.650000	0.110689
2.650500	0.093949
2.651000	0.065941
2.651500	0.042118
2.652000	0.026021
2.652500	0.000267
2.653000	-0.033214
2.653500	-0.069271
2.654000	-0.064764
2.654500	-0.072168
2.655000	-0.103074
2.655500	-0.132370
2.656000	-0.166494
2.656500	-0.171967
2.657000	-0.133979
2.657500	-0.056394
2.658000	-0.018084
2.658500	0.004452
2.659000	0.032138
2.659500	-0.006172
2.660000	-0.024522
2.660500	-0.006172
2.661000	0.021514
2.661500	0.020870
2.662000	0.011856
2.662500	-0.008426
2.663000	0.014110
2.663500	0.023768
2.664000	0.020870
2.664500	0.026665
2.665000	0.053707
2.665500	0.038576
2.666000	0.005417
2.666500	0.013466
2.667000	0.084291
2.667500	0.111011
2.668000	0.123889
2.668500	0.080750
2.669000	0.024411
2.669500	-0.034502
2.670000	-0.073456
2.670500	-0.114019
2.671000	-0.161987
2.671500	-0.144281
2.672000	-0.133657
2.672500	-0.131082
2.673000	-0.073456
2.673500	-0.045126
2.674000	-0.087299
2.674500	-0.161665
2.675000	-0.150720
2.675500	-0.073778
2.676000	0.006383
2.676500	0.021836
2.677000	0.017973
2.677500	0.018939
2.678000	0.035357
2.678500	0.054351
2.679000	0.068838
2.679500	0.064009
2.680000	0.058214
2.680500	0.081715
2.681000	0.090408
2.681500	0.070770
2.682000	0.018939
2.682500	0.007671
2.683000	0.000588
2.683500	-0.042550
2.684000	-0.058969
2.684500	-0.026454
2.685000	0.024411
2.685500	0.016685
2.686000	0.010246
2.686500	0.027309
2.687000	0.039864
2.687500	0.043084
2.688000	0.023446
2.688500	-0.023556
2.689000	-0.040941
2.689500	-0.004884
2.690000	0.017973
2.690500	-0.020337
2.691000	-0.025810
2.691500	-0.008104
2.692000	-0.029673
2.692500	-0.084080
2.693000	-0.140418
2.693500	-0.157802
2.694000	-0.119492
2.694500	-0.069593
2.695000	-0.047379
2.695500	-0.045448
2.696000	-0.037078
2.696500	0.008959
2.697000	0.073023
2.697500	0.046625
2.698000	-0.015508
2.698500	-0.006816
2.699000	0.017007
2.699500	0.019261
2.700000	0.047269
2.700500	0.085257
2.701000	0.087188
2.701500	0.082037
2.702000	0.036001
2.702500	0.000588
2.703000	-0.010357
2.703500	-0.024844
2.704000	-0.027742
2.704500	-0.017762
2.705000	-0.018406
2.705500	-0.028385
2.706000	-0.038043
2.706500	-0.007782
2.707000	0.020870
2.707500	-0.013255
2.708000	-0.056715
2.708500	-0.060257
2.709000	-0.046736
2.709500	-0.018727
2.710000	-0.027742
2.710500	-0.028707
2.711000	0.012822
2.711500	0.005739
2.712000	-0.024522
2.712500	-0.053174
2.713000	-0.029351
2.713500	-0.016152
2.714000	-0.044804
2.714500	-0.018406
2.715000	0.037933
2.715500	0.073345
2.716000	0.069160
2.716500	0.034069
2.717000	0.009281
2.717500	-0.023235
2.718000	-0.025166
2.718500	-0.011645
2.719000	-0.000377
2.719500	0.022480
2.720000	0.064331
2.720500	0.078496
2.721000	0.047913
2.721500	-0.000699
2.722000	-0.010679
2.722500	-0.011967
2.723000	0.021836
2.723500	0.034713
2.724000	-0.003275
2.724500	-0.068627
2.725000	-0.083436
2.725500	-0.081504
2.726000	-0.097923
2.726500	-0.122712
2.727000	-0.098567
2.727500	-0.069915
2.728000	-0.055106
2.728500	-0.012611
2.729000	0.007993
2.729500	0.004130
2.730000	0.004130
2.730500	0.011856
2.731000	-0.005850
2.731500	0.044693
2.732000	0.111655
2.732500	0.128074
2.733000	0.058214
2.733500	-0.032571
2.734000	-0.119170
2.734500	-0.151042
2.735000	-0.129472
2.735500	-0.120780
2.736000	-0.113376
2.736500	-0.065086
2.737000	0.002520
2.737500	0.034391
2.738000	0.040830
2.738500	0.039220
2.739000	0.045015
2.739500	0.009281
2.740000	-0.035146
2.740500	-0.042550
2.741000	0.001554
2.741500	0.024733
2.742000	0.000910
2.742500	-0.019049
2.743000	-0.011323
2.743500	-0.001343
2.744000	0.011856
2.744500	0.013788
2.745000	0.036645
2.745500	0.062721
2.746000	0.058858
2.746500	0.028275
2.747000	0.029562
2.747500	0.046947
2.748000	0.029884
2.748500	-0.009713
2.749000	-0.022591
2.749500	-0.037400
2.750000	-0.033858
2.750500	-0.018406
2.751000	0.011212
2.751500	0.009924
2.752000	-0.018084
2.752500	-0.039653
2.753000	-0.042872
2.753500	-0.029995
2.754000	-0.026132
2.754500	-0.028064
2.755000	0.008637
2.755500	0.007349
2.756000	-0.023235
2.756500	-0.046736
2.757000	-0.057681
2.757500	-0.059935
2.758000	-0.084402
2.758500	-0.083114
2.759000	-0.059935
2.759500	-0.046736
2.760000	0.006705
2.760500	0.057570
2.761000	0.065941
2.761500	0.049522
2.762000	0.058214
2.762500	0.073667
2.763000	0.078818
2.763500	0.054029
2.764000	0.012822
2.764500	-0.020659
2.765000	0.034391
2.765500	0.069160
2.766000	0.071414
2.766500	0.046303
2.767000	0.016041
2.767500	-0.070237
2.768000	-0.171645
2.768500	-0.179694
2.769000	-0.110800
2.769500	-0.041585
2.770000	-0.023878
2.770500	-0.029029
2.771000	-0.035146
2.771500	0.007027
2.772000	0.071735
2.772500	0.085901
2.773000	0.090730
2.773500	0.067550
2.774000	0.060790
2.774500	-0.000377
2.775000	-0.053818
2.775500	-0.097601
2.776000	-0.116273
2.776500	-0.110156
2.777000	-0.085689
2.777500	-0.019371
2.778000	-0.016152
2.778500	0.005417
2.779000	0.022802
2.779500	-0.001343
2.780000	-0.045126
2.780500	-0.032249
2.781000	-0.005206
2.781500	0.020870
2.782000	0.065941
2.782500	0.101997
2.783000	0.111655
2.783500	0.076886
2.784000	0.049522
2.784500	0.002520
2.785000	-0.024844
2.785500	-0.020659
2.786000	-0.015508
2.786500	-0.013255
2.787000	-0.006816
2.787500	0.011534
2.788000	0.004452
2.788500	-0.027742
2.789000	-0.015508
2.789500	-0.034502
2.790000	-0.077641
2.790500	-0.114985
2.791000	-0.142349
2.791500	-0.106293
2.792000	-0.057037
2.792500	-0.017440
2.793000	0.004452
2.793500	0.012500
2.794000	0.002520
2.794500	-0.037400
2.795000	-0.066373
2.795500	-0.059935
2.796000	-0.012289
2.796500	0.015075
2.797000	0.046303
2.797500	0.062078
2.798000	0.111011
2.798500	0.152541
2.799000	0.124854
2.799500	0.084291
2.800000	0.073667
2.800500	0.048556
2.801000	0.013144
2.801500	0.001554
2.802000	-0.053174
2.802500	-0.090196
2.803000	-0.084402
2.803500	-0.110800
2.804000	-0.120780
2.804500	-0.106937
2.805000	-0.073778
2.805500	-0.053818
2.806000	-0.034180
2.806500	-0.018406
2.807000	-0.008748
2.807500	-0.011645
2.808000	0.011212
2.808500	-0.003919
2.809000	-0.067017
2.809500	-0.050599
2.810000	-0.033536
2.810500	-0.036434
2.811000	-0.010357
2.811500	0.003808
2.812000	-0.013898
2.812500	-0.058647
2.813000	-0.027098
2.813500	-0.005206
2.814000	0.014432
2.814500	0.026665
2.815000	0.038576
2.815500	0.012178
2.816000	-0.031927
2.816500	-0.076675
2.817000	-0.105327
2.817500	-0.115307
2.818000	-0.044804
2.818500	0.031494
2.819000	0.067550
2.819500	0.037611
2.820000	-0.004562
2.820500	-0.015508
2.821000	-0.023878
2.821500	-0.039009
2.822000	-0.020659
2.822500	0.014753
2.823000	0.052420
2.823500	0.074633
2.824000	0.092339
2.824500	0.082681
2.825000	0.053063
2.825500	-0.003275
2.826000	-0.060579
2.826500	-0.111444
2.827000	-0.067017
2.827500	0.014432
2.828000	0.041796
2.828500	0.085901
2.829000	0.102641
2.829500	0.085257
2.830000	0.072057
2.830500	0.072701
2.831000	0.054351
2.831500	0.042762
2.832000	0.021192
2.832500	-0.010035
2.833000	-0.044804
2.833500	-0.059613
2.834000	-0.037721
2.834500	-0.047058
2.835000	-0.045126
2.835500	-0.088587
2.836000	-0.115629
2.836500	-0.100820
2.837000	-0.081182
2.837500	-0.027098
2.838000	0.020870
2.838500	0.040508
2.839000	0.030206
2.839500	-0.001021
2.840000	0.015719
2.840500	0.016685
2.841000	0.012178
2.841500	-0.007460
2.842000	-0.026776
2.842500	-0.021947
2.843000	-0.051243
2.843500	-0.115307
2.844000	-0.136233
2.844500	-0.126897
2.845000	-0.073778
2.845500	-0.035790
2.846000	-0.012611
2.846500	0.003808
2.847000	0.021514
2.847500	0.058536
2.848000	0.071414
2.848500	0.068194
2.849000	0.054029
2.849500	0.065619
2.850000	0.097490
2.850500	0.098778
2.851000	0.070126
2.851500	0.050810
2.852000	0.038576
2.852500	0.005739
2.853000	-0.018084
2.853500	-0.052208
2.854000	-0.083436
2.854500	-0.077963
2.855000	-0.107259
2.855500	-0.134945
2.856000	-0.149432
2.856500	-0.185810
2.857000	-0.152007
2.857500	-0.055750
2.858000	0.066263
2.858500	0.173144
2.859000	0.194714
2.859500	0.177329
2.860000	0.122923
2.860500	0.069482
2.861000	0.048878
2.861500	0.024733
2.862000	0.016363
2.862500	0.026987
2.863000	0.065297
2.863500	0.069482
2.864000	0.024090
2.864500	-0.026454
2.865000	-0.058647
2.865500	-0.059291
2.866000	-0.084080
2.866500	-0.120136
2.867000	-0.165850
2.867500	-0.187742
2.868000	-0.116273
2.868500	-0.054140
2.869000	-0.060901
2.869500	-0.119814
2.870000	-0.152973
2.870500	-0.159090
2.871000	-0.149754
2.871500	-0.092450
2.872000	-0.015186
2.872500	0.059180
2.873000	0.116162
2.873500	0.113909
2.874000	0.072379
2.874500	0.037933
2.875000	0.019261
2.875500	0.021836
2.876000	0.040508
2.876500	0.061434
2.877000	0.065619
2.877500	0.079140
2.878000	0.070448
2.878500	0.043405
2.879000	0.017329
2.879500	-0.020015
2.880000	-0.065730
2.880500	-0.120458
2.881000	-0.097601
2.881500	-0.017440
2.882000	0.016685
2.882500	0.044049
2.883000	0.024733
2.883500	0.015397
2.884000	0.038576
2.884500	0.027953
2.885000	0.018617
2.885500	0.005417
2.886000	0.003808
2.886500	-0.003919
2.887000	-0.045770
2.887500	-0.088909
2.888000	-0.099854
2.888500	-0.065730
2.889000	-0.039009
2.889500	-0.007138
2.890000	0.003486
2.890500	0.012822
2.891000	0.015719
2.891500	0.025055
2.892000	0.017973
2.892500	-0.002309
2.893000	-0.039653
2.893500	-0.058969
2.894000	-0.079251
2.894500	-0.080538
2.895000	-0.043516
2.895500	-0.011323
2.896000	0.020870
2.896500	0.029884
2.897000	0.031172
2.897500	0.022480
2.898000	0.034069
2.898500	0.085579
2.899000	0.094915
2.899500	0.090408
2.900000	0.081715
2.900500	0.043405
2.901000	-0.004562
2.901500	-0.049633
2.902000	-0.072168
2.902500	-0.086977
2.903000	-0.073778
2.903500	-0.117561
2.904000	-0.133335
2.904500	-0.122068
2.905000	-0.083114
2.905500	-0.007782
2.906000	-0.024200
2.906500	-0.060579
2.907000	-0.015508
2.907500	0.075277
2.908000	0.108114
2.908500	0.054673
2.909000	0.000910
2.909500	-0.003919
2.910000	0.034391
2.910500	0.031494
2.911000	0.010568
2.911500	-0.001665
2.912000	0.010890
2.912500	0.040186
2.913000	0.050488
2.913500	0.037611
2.914000	0.019261
2.914500	-0.009070
2.915000	-0.006494
2.915500	0.045015
2.916000	0.043405
2.916500	0.005739
2.917000	-0.036756
2.917500	-0.096957
2.918000	-0.098567
2.918500	-0.034824
2.919000	-0.018727
2.919500	-0.031927
2.920000	-0.054462
2.920500	-0.026132
2.921000	0.028597
2.921500	0.047269
2.922000	0.035679
2.922500	0.011534
2.923000	-0.016796
2.923500	-0.056072
2.924000	-0.100820
2.924500	-0.118848
2.925000	-0.112732
2.925500	-0.107259
2.926000	-0.094060
2.926500	-0.070237
2.927000	-0.065408
2.927500	-0.062832
2.928000	-0.060579
2.928500	-0.043194
2.929000	-0.009070
2.929500	0.054351
2.930000	0.135156
2.930500	0.160589
2.931000	0.164774
2.931500	0.117450
2.932000	0.059502
2.932500	0.005096
2.933000	-0.027420
2.933500	-0.030317
2.934000	-0.015830
2.934500	0.004130
2.935000	0.016685
2.935500	0.036967
2.936000	0.033747
2.936500	-0.007138
2.937000	-0.060257
2.937500	-0.099211
2.938000	-0.064120
2.938500	-0.056072
2.939000	-0.049633
2.939500	-0.047379
2.940000	-0.046414
2.940500	-0.076997
2.941000	-0.116595
2.941500	-0.059935
2.942000	0.021192
2.942500	0.056927
2.943000	0.066263
2.943500	0.039220
2.944000	0.033426
2.944500	0.010890
2.945000	0.009281
2.945500	0.006705
2.946000	-0.021625
2.946500	-0.066052
2.947000	-0.078285
2.947500	-0.076031
2.948000	-0.051886
2.948500	-0.020015
2.949000	0.014753
2.949500	0.049844
2.950000	0.077208
2.950500	0.079462
2.951000	0.064331
2.951500	0.062078
2.952000	0.033426
2.952500	0.011534
2.953000	-0.013255
2.953500	-0.022913
2.954000	-0.026776
2.954500	0.016685
2.955000	0.040830
2.955500	0.020226
2.956000	-0.015830
2.956500	-0.032892
2.957000	-0.016796
2.957500	-0.017762
2.958000	0.000588
2.958500	0.007027
2.959000	-0.027098
2.959500	-0.044804
2.960000	-0.050277
2.960500	-0.051886
2.961000	-0.054784
2.961500	-0.069593
2.962000	-0.041907
2.962500	-0.015830
2.963000	0.043084
2.963500	0.104251
2.964000	0.095558
2.964500	0.043084
2.965000	0.002520
2.965500	-0.002309
2.966000	0.008315
2.966500	0.015075
2.967000	0.023446
2.967500	0.036001
2.968000	0.015397
2.968500	-5.540373E-5
2.969000	-0.015508
2.969500	-0.032571
2.970000	-0.057359
2.970500	-0.082148
2.971000	-0.067339
2.971500	-0.054462
2.972000	-0.075388
2.972500	-0.100820
2.973000	-0.080538
2.973500	-0.053496
2.974000	-0.016152
2.974500	0.033104
2.975000	0.066907
2.975500	0.090730
2.976000	0.091695
2.976500	0.049200
2.977000	-0.021625
2.977500	-0.037400
2.978000	-0.031605
2.978500	-0.029673
2.979000	-0.031927
2.979500	-0.068305
2.980000	-0.056715
2.980500	-0.060579
2.981000	-0.076353
2.981500	-0.079895
2.982000	-0.060257
2.982500	-0.046736
2.983000	0.000588
2.983500	0.034713
2.984000	0.037933
2.984500	0.034391
2.985000	0.064653
2.985500	0.081072
2.986000	0.073667
2.986500	0.044693
2.987000	0.024733
2.987500	0.015075
2.988000	-0.004884
2.988500	-0.035790
2.989000	-0.039975
2.989500	-0.034502
2.990000	-0.052852
2.990500	-0.076031
2.991000	-0.096957
2.991500	-0.133335
2.992000	-0.141384
2.992500	-0.091484
2.993000	-0.035468
2.993500	-0.009713
2.994000	0.010246
2.994500	0.038255
2.995000	0.041152
2.995500	0.028597
2.996000	0.025377
2.996500	0.022158
2.997000	0.065941
2.997500	0.078818
2.998000	0.069482
2.998500	0.059502
2.999000	0.070448
2.999500	0.069804
3.000000	0.051776
3.000500	0.070770
3.001000	0.067228
3.001500	0.032138
3.002000	-0.030961
3.002500	-0.075709
3.003000	-0.062188
3.003500	-0.070880
3.004000	-0.080538
3.004500	-0.098245
3.005000	-0.147178
3.005500	-0.180016
3.006000	-0.178406
3.006500	-0.138486
3.007000	-0.113376
3.007500	-0.072490
3.008000	-0.020337
3.008500	0.036645
3.009000	0.083325
3.009500	0.060468
3.010000	0.038898
3.010500	0.034391
3.011000	0.015719
3.011500	-0.023235
3.012000	-0.027420
3.012500	-0.008426
3.013000	0.011856
3.013500	0.007671
3.014000	0.002198
3.014500	0.003808
3.015000	0.021192
3.015500	0.034069
3.016000	0.033747
3.016500	0.043727
3.017000	0.044693
3.017500	0.041152
3.018000	0.036967
3.018500	0.030850
3.019000	0.025055
3.019500	0.019261
3.020000	0.008315
3.020500	-0.016474
3.021000	-0.027420
3.021500	-0.009070
3.022000	0.001232
3.022500	0.017651
3.023000	0.007349
3.023500	-0.041585
3.024000	-0.095025
3.024500	-0.082470
3.025000	-0.076353
3.025500	-0.056715
3.026000	-0.014542
3.026500	0.002520
3.027000	-0.014864
3.027500	-0.019049
3.028000	-0.024844
3.028500	-0.007782
3.029000	-0.008748
3.029500	0.001554
3.030000	0.026987
3.030500	0.072701
3.031000	0.068838
3.031500	0.037289
3.032000	0.010246
3.032500	0.006061
3.033000	0.028597
3.033500	0.016041
3.034000	0.000267
3.034500	0.009924
3.035000	0.016041
3.035500	0.020226
3.036000	0.016041
3.036500	-0.029029
3.037000	-0.093416
3.037500	-0.137842
3.038000	-0.183235
3.038500	-0.206092
3.039000	-0.151042
3.039500	-0.047058
3.040000	0.003486
3.040500	0.008959
3.041000	0.045337
3.041500	0.070448
3.042000	0.057570
3.042500	0.030850
3.043000	0.017007
3.043500	0.010890
3.044000	-0.003597
3.044500	-0.010679
3.045000	0.004130
3.045500	0.020226
3.046000	0.040508
3.046500	0.036001
3.047000	-0.010357
3.047500	-0.053818
3.048000	-0.019693
3.048500	0.015075
3.049000	0.068516
3.049500	0.073345
3.050000	0.085579
3.050500	0.079784
3.051000	0.066907
3.051500	0.026987
3.052000	-0.011967
3.052500	-0.075388
3.053000	-0.109834
3.053500	-0.137842
3.054000	-0.092128
3.054500	-0.016796
3.055000	-0.019371
3.055500	-0.030961
3.056000	-0.001021
3.056500	0.006705
3.057000	0.000267
3.057500	0.002198
3.058000	0.020870
3.058500	0.005739
3.059000	-0.018727
3.059500	-0.050599
3.060000	-0.088909
3.060500	-0.138164
3.061000	-0.158768
3.061500	-0.114985
3.062000	-0.069915
3.062500	-0.065730
3.063000	-0.044160
3.063500	0.029562
3.064000	0.069160
3.064500	0.058858
3.065000	0.057249
3.065500	0.052420
3.066000	0.019582
3.066500	-0.006816
3.067000	-0.009713
3.067500	-0.010679
3.068000	-0.002631
3.068500	0.024733
3.069000	0.030850
3.069500	0.036323
3.070000	0.033747
3.070500	0.015719
3.071000	0.019582
3.071500	0.049844
3.072000	0.063687
3.072500	0.076886
3.073000	0.054995
3.073500	0.042762
3.074000	0.014110
3.074500	-0.031927
3.075000	-0.061866
3.075500	-0.079573
3.076000	-0.090196
3.076500	-0.087299
3.077000	-0.040619
3.077500	-0.021947
3.078000	-0.037078
3.078500	-0.009391
3.079000	0.017651
3.079500	0.009924
3.080000	-0.012933
3.080500	-0.007782
3.081000	0.021192
3.081500	0.058858
3.082000	0.049522
3.082500	0.022158
3.083000	0.006383
3.083500	-0.001665
3.084000	0.000588
3.084500	-0.001665
3.085000	0.007993
3.085500	-0.010679
3.086000	-0.045448
3.086500	-0.095669
3.087000	-0.120458
3.087500	-0.123999
3.088000	-0.113054
3.088500	-0.082792
3.089000	-0.063154
3.089500	-0.035790
3.090000	0.063043
3.090500	0.083325
3.091000	0.070770
3.091500	0.077530
3.092000	0.084613
3.092500	0.114874
3.093000	0.123245
3.093500	0.081072
3.094000	0.046947
3.094500	0.028919
3.095000	0.017329
3.095500	0.017007
3.096000	0.018295
3.096500	-0.035790
3.097000	-0.132048
3.097500	-0.205770
3.098000	-0.186132
3.098500	-0.143959
3.099000	-0.072168
3.099500	-0.051886
3.100000	-0.059613
3.100500	-0.057681
3.101000	-0.055750
3.101500	-0.048023
3.102000	-0.060579
3.102500	-0.086977
3.103000	-0.072812
3.103500	-0.070880
3.104000	-0.033536
3.104500	0.020548
3.105000	0.041474
3.105500	0.045981
3.106000	0.060790
3.106500	0.073023
3.107000	0.033426
3.107500	-0.014864
3.108000	-0.005528
3.108500	0.018617
3.109000	0.007349
3.109500	-0.010679
3.110000	-0.029351
3.110500	-0.050277
3.111000	-0.040941
3.111500	-0.010357
3.112000	0.047913
3.112500	0.103285
3.113000	0.118094
3.113500	0.063365
3.114000	0.012178
3.114500	-0.030317
3.115000	-0.033214
3.115500	-0.004562
3.116000	0.029562
3.116500	0.033426
3.117000	0.035357
3.117500	0.013788
3.118000	0.001232
3.118500	-0.018727
3.119000	-0.047701
3.119500	-0.026454
3.120000	-0.020015
3.120500	-0.022913
3.121000	-0.042229
3.121500	-0.053174
3.122000	-0.046414
3.122500	-0.025488
3.123000	-0.008748
3.123500	0.000267
3.124000	0.011856
3.124500	0.026021
3.125000	0.035679
3.125500	0.033426
3.126000	0.051776
3.126500	0.054995
3.127000	0.016363
3.127500	-0.021625
3.128000	-0.041907
3.128500	-0.059291
3.129000	-0.056394
3.129500	-0.048989
3.130000	-0.070880
3.130500	-0.071846
3.131000	-0.063476
3.131500	-0.012611
3.132000	0.002520
3.132500	-5.540373E-5
3.133000	0.008315
3.133500	0.024411
3.134000	0.000910
3.134500	-0.018406
3.135000	0.010568
3.135500	0.033426
3.136000	0.059502
3.136500	0.054995
3.137000	0.016041
3.137500	-0.017762
3.138000	-0.024200
3.138500	-0.048667
3.139000	-0.057359
3.139500	-0.068305
3.140000	-0.060901
3.140500	-0.062510
3.141000	-0.077319
3.141500	-0.104361
3.142000	-0.110156
3.142500	-0.084402
3.143000	-0.064764
3.143500	-0.066052
3.144000	-0.008426
3.144500	0.086544
3.145000	0.108114
3.145500	0.094271
3.146000	0.099422
3.146500	0.113265
3.147000	0.090086
3.147500	0.059824
3.148000	0.016041
3.148500	0.004452
3.149000	0.011856
3.149500	-0.019371
3.150000	-0.030639
3.150500	-0.020015
3.151000	-0.004884
3.151500	0.012178
3.152000	0.043727
3.152500	0.001232
3.153000	-0.053174
3.153500	-0.133979
3.154000	-0.197078
3.154500	-0.171645
3.155000	-0.094703
3.155500	-0.022591
3.156000	0.015075
3.156500	0.014110
3.157000	0.006705
3.157500	0.020870
3.158000	0.050488
3.158500	0.051132
3.159000	0.019582
3.159500	-0.023556
3.160000	-0.053818
3.160500	-0.067661
3.161000	-0.026454
3.161500	0.007993
3.162000	-0.021947
3.162500	-0.037721
3.163000	-0.025166
3.163500	-0.014542
3.164000	-0.001987
3.164500	0.027309
3.165000	0.046947
3.165500	0.038576
3.166000	0.024090
3.166500	0.010246
3.167000	-0.012933
3.167500	-0.036756
3.168000	-0.048023
3.168500	-0.076031
3.169000	-0.045126
3.169500	0.019904
3.170000	0.039542
3.170500	0.052420
3.171000	0.064975
3.171500	0.044693
3.172000	0.014432
3.172500	0.002198
3.173000	0.018939
3.173500	0.024733
3.174000	0.027309
3.174500	0.001554
3.175000	-0.012611
3.175500	-0.019371
3.176000	0.000588
3.176500	-0.021625
3.177000	-0.043516
3.177500	-0.002953
3.178000	-0.002953
3.178500	0.010568
3.179000	-0.011645
3.179500	-0.060257
3.180000	-0.080217
3.180500	-0.082792
3.181000	-0.095991
3.181500	-0.111122
3.182000	-0.111122
3.182500	-0.091484
3.183000	-0.037721
3.183500	0.000910
3.184000	0.060790
3.184500	0.105538
3.185000	0.118094
3.185500	0.114552
3.186000	0.086866
3.186500	0.057249
3.187000	0.038255
3.187500	0.046625
3.188000	0.012500
3.188500	-0.029029
3.189000	-0.058969
3.189500	-0.061223
3.190000	-0.022591
3.190500	0.015719
3.191000	0.071735
3.191500	0.077208
3.192000	0.090086
3.192500	0.084291
3.193000	0.104251
3.193500	0.120669
3.194000	0.110045
3.194500	0.105216
3.195000	0.080428
3.195500	0.025055
3.196000	-0.055750
3.196500	-0.117239
3.197000	-0.121424
3.197500	-0.124321
3.198000	-0.132370
3.198500	-0.208989
3.199000	-0.326817
3.199500	-0.321022
3.200000	-0.249231
3.200500	-0.166172
3.201000	-0.071202
3.201500	-0.022591
3.202000	-0.020659
3.202500	-0.040619
3.203000	-0.002309
3.203500	0.016041
3.204000	0.031816
3.204500	0.050166
3.205000	0.054995
3.205500	0.042118
3.206000	0.016363
3.206500	0.003486
3.207000	0.010568
3.207500	0.006705
3.208000	-0.002953
3.208500	-0.010357
3.209000	-0.006494
3.209500	0.014110
3.210000	0.032138
3.210500	0.035679
3.211000	0.017973
3.211500	0.014753
3.212000	0.048556
3.212500	0.078818
3.213000	0.065619
3.213500	0.036645
3.214000	0.017651
3.214500	0.049200
3.215000	0.056927
3.215500	0.039542
3.216000	0.006705
3.216500	-0.015830
3.217000	-0.027742
3.217500	-0.029351
3.218000	-0.037400
3.218500	-0.057359
3.219000	-0.055428
3.219500	0.000267
3.220000	0.053385
3.220500	0.024090
3.221000	-0.043516
3.221500	-0.070559
3.222000	-0.068949
3.222500	-0.083114
3.223000	-0.063154
3.223500	-0.026454
3.224000	0.010568
3.224500	0.013144
3.225000	0.004774
3.225500	-0.038687
3.226000	-0.052530
3.226500	-0.078607
3.227000	-0.093738
3.227500	-0.057037
3.228000	-0.042229
3.228500	0.000267
3.229000	0.034069
3.229500	0.032138
3.230000	0.014110
3.230500	0.008959
3.231000	0.004130
3.231500	-0.008426
3.232000	-0.021303
3.232500	-0.037721
3.233000	-0.018727
3.233500	0.016041
3.234000	0.030206
3.234500	0.019261
3.235000	-0.001021
3.235500	-0.012289
3.236000	0.007349
3.236500	0.056927
3.237000	0.065941
3.237500	0.045337
3.238000	0.035357
3.238500	0.047591
3.239000	0.062078
3.239500	0.062721
3.240000	0.057570
3.240500	0.043727
3.241000	0.022480
3.241500	-0.007460
3.242000	-0.055106
3.242500	-0.087299
3.243000	-0.092128
3.243500	-0.088909
3.244000	-0.130438
3.244500	-0.157158
3.245000	-0.130116
3.245500	-0.104361
3.246000	-0.088587
3.246500	-0.032571
3.247000	0.030528
3.247500	0.042440
3.248000	0.042118
3.248500	0.072057
3.249000	0.103607
3.249500	0.115840
3.250000	0.124210
3.250500	0.129683
3.251000	0.117772
3.251500	0.087188
3.252000	0.055317
3.252500	0.040186
3.253000	0.004130
3.253500	-0.060257
3.254000	-0.082792
3.254500	-0.124643
3.255000	-0.150076
3.255500	-0.163275
3.256000	-0.138486
3.256500	-0.080860
3.257000	-0.067983
3.257500	-0.074100
3.258000	-0.076675
3.258500	-0.102430
3.259000	-0.133335
3.259500	-0.143637
3.260000	-0.123999
3.260500	-0.050921
3.261000	0.042440
3.261500	0.096846
3.262000	0.113265
3.262500	0.085579
3.263000	0.030850
3.263500	-0.010679
3.264000	-0.007138
3.264500	-0.012289
3.265000	0.002520
3.265500	0.014110
3.266000	0.056605
3.266500	0.082359
3.267000	0.100709
3.267500	0.085901
3.268000	0.046625
3.268500	0.005096
3.269000	-0.021947
3.269500	-0.008104
3.270000	0.001554
3.270500	-0.014542
3.271000	-0.053496
3.271500	-0.082470
3.272000	-0.106615
3.272500	-0.101142
3.273000	-0.087621
3.273500	-0.066052
3.274000	-0.048345
3.274500	-0.012933
3.275000	0.022802
3.275500	0.023446
3.276000	0.032138
3.276500	0.059824
3.277000	0.072701
3.277500	0.067872
3.278000	0.054673
3.278500	0.045015
3.279000	0.070126
3.279500	0.077208
3.280000	0.052741
3.280500	0.033426
3.281000	0.011212
3.281500	-0.004241
3.282000	0.021192
3.282500	0.015075
3.283000	-0.028707
3.283500	-0.066695
3.284000	-0.121746
3.284500	-0.134623
3.285000	-0.104361
3.285500	-0.077963
3.286000	-0.090840
3.286500	-0.068949
3.287000	-0.039009
3.287500	0.003164
3.288000	0.016363
3.288500	-0.001021
3.289000	-0.029351
3.289500	-0.035790
3.290000	-0.004562
3.290500	0.045337
3.291000	0.081715
3.291500	0.096524
3.292000	0.082359
3.292500	0.048556
3.293000	0.046303
3.293500	0.048878
3.294000	0.020870
3.294500	-0.010357
3.295000	-0.034502
3.295500	-0.060257
3.296000	-0.068305
3.296500	-0.056072
3.297000	-0.012611
3.297500	0.006383
3.298000	0.034713
3.298500	0.037289
3.299000	0.025699
3.299500	-0.010357
3.300000	-0.045448
3.300500	-0.058003
3.301000	-0.044804
3.301500	-0.054462
3.302000	-0.053818
3.302500	-0.040297
3.303000	-0.018084
3.303500	-0.039331
3.304000	-0.067983
3.304500	-0.106293
3.305000	-0.127541
3.305500	-0.094060
3.306000	-0.042872
3.306500	-0.046736
3.307000	-0.102430
3.307500	-0.077319
3.308000	-0.028064
3.308500	0.018295
3.309000	0.018617
3.309500	-0.005528
3.310000	-0.014542
3.310500	0.017007
3.311000	0.042762
3.311500	0.047913
3.312000	0.065619
3.312500	0.059824
3.313000	0.033426
3.313500	0.018295
3.314000	0.032782
3.314500	0.007993
3.315000	-0.002309
3.315500	0.033426
3.316000	0.060790
3.316500	0.071735
3.317000	0.068516
3.317500	0.047591
3.318000	-0.020981
3.318500	-0.080860
3.319000	-0.099532
3.319500	-0.074744
3.320000	-0.027420
3.320500	0.024733
3.321000	0.093305
3.321500	0.112299
3.322000	0.118738
3.322500	0.108114
3.323000	0.059502
3.323500	0.013466
3.324000	-0.023878
3.324500	-0.020981
3.325000	-0.035468
3.325500	-0.057037
3.326000	-0.050921
3.326500	-0.027420
3.327000	-0.058969
3.327500	-0.127219
3.328000	-0.157802
3.328500	-0.109512
3.329000	-0.130760
3.329500	-0.159090
3.330000	-0.107903
3.330500	-0.034824
3.331000	0.035679
3.331500	0.083003
3.332000	0.106504
3.332500	0.117772
3.333000	0.126464
3.333500	0.102963
3.334000	0.038898
3.334500	0.025055
3.335000	0.026987
3.335500	-0.003275
3.336000	-0.024200
3.336500	-0.046736
3.337000	-0.099854
3.337500	-0.123355
3.338000	-0.130116
3.338500	-0.125931
3.339000	-0.136233
3.339500	-0.147822
3.340000	-0.120780
3.340500	-0.134623
3.341000	-0.087943
3.341500	-0.030317
3.342000	0.006705
3.342500	0.051132
3.343000	0.058536
3.343500	0.030528
3.344000	0.018295
3.344500	0.035357
3.345000	0.030206
3.345500	0.031494
3.346000	0.035357
3.346500	0.041152
3.347000	0.049522
3.347500	0.051776
3.348000	0.056283
3.348500	0.037611
3.349000	0.012822
3.349500	-0.036112
3.350000	-0.070237
3.350500	-0.065730
3.351000	-0.062188
3.351500	-0.050599
3.352000	-0.030639
3.352500	-0.004241
3.353000	0.013144
3.353500	-0.018727
3.354000	-0.072812
3.354500	-0.065730
3.355000	0.017007
3.355500	0.080750
3.356000	0.119381
3.356500	0.106504
3.357000	0.103929
3.357500	0.055317
3.358000	0.010890
3.358500	-0.020337
3.359000	-0.021625
3.359500	-0.013255
3.360000	-0.006172
3.360500	-0.010035
3.361000	-0.027742
3.361500	-0.068949
3.362000	-0.080538
3.362500	-0.061223
3.363000	-0.055428
3.363500	-0.050277
3.364000	-0.058325
3.364500	-0.051565
3.365000	-0.016796
3.365500	-0.009713
3.366000	0.005096
3.366500	0.059502
3.367000	0.109402
3.367500	0.097490
3.368000	0.053707
3.368500	0.029562
3.369000	-0.013577
3.369500	-0.072812
3.370000	-0.103074
3.370500	-0.113376
3.371000	-0.075709
3.371500	-0.036756
3.372000	0.004774
3.372500	0.055961
3.373000	0.083003
3.373500	0.092983
3.374000	0.058214
3.374500	0.061434
3.375000	0.091051
3.375500	0.088154
3.376000	0.071414
3.376500	0.035679
3.377000	-0.005206
3.377500	-0.018084
3.378000	-0.004241
3.378500	0.024411
3.379000	-0.024844
3.379500	-0.065408
3.380000	-0.091162
3.380500	-0.105971
3.381000	-0.148788
3.381500	-0.212853
3.382000	-0.245046
3.382500	-0.220579
3.383000	-0.143637
3.383500	-0.060257
3.384000	0.042440
3.384500	0.110689
3.385000	0.092017
3.385500	0.026665
3.386000	0.002198
3.386500	0.004452
3.387000	-0.001987
3.387500	-5.540373E-5
3.388000	0.000267
3.388500	0.048234
3.389000	0.101675
3.389500	0.083647
3.390000	0.027309
3.390500	-0.044482
3.391000	-0.107259
3.391500	-0.126575
3.392000	-0.111766
3.392500	-0.082792
3.393000	-0.048989
3.393500	-0.010035
3.394000	-0.022269
3.394500	-0.032571
3.395000	-0.011645
3.395500	0.029884
3.396000	0.035035
3.396500	0.003486
3.397000	0.039864
3.397500	0.066263
3.398000	0.093627
3.398500	0.114552
3.399000	0.110045
3.399500	0.086222
3.400000	0.095558
3.400500	0.095237
3.401000	0.093305
3.401500	0.054995
3.402000	-0.014220
3.402500	-0.022913
3.403000	-0.002309
3.403500	-0.013255
3.404000	-0.078929
3.404500	-0.112088
3.405000	-0.118848
3.405500	-0.130438
3.406000	-0.109834
3.406500	-0.119492
3.407000	-0.135911
3.407500	-0.131726
3.408000	-0.123355
3.408500	-0.070880
3.409000	-0.018727
3.409500	-0.021303
3.410000	-0.016796
3.410500	-0.011323
3.411000	-0.040941
3.411500	-0.074100
3.412000	-0.057359
3.412500	-0.016474
3.413000	0.008637
3.413500	0.023446
3.414000	0.044049
3.414500	0.036967
3.415000	0.046947
3.415500	0.058858
3.416000	0.055961
3.416500	0.044693
3.417000	0.041152
3.417500	0.056927
3.418000	0.053385
3.418500	0.047269
3.419000	0.080428
3.419500	0.084291
3.420000	0.054673
3.420500	0.015075
3.421000	-0.022269
3.421500	-0.063476
3.422000	-0.085367
3.422500	-0.077319
3.423000	-0.039331
3.423500	0.001554
3.424000	0.042440
3.424500	0.083325
3.425000	0.094915
3.425500	0.086222
3.426000	0.058214
3.426500	0.008315
3.427000	-0.027742
3.427500	-0.051886
3.428000	-0.033536
3.428500	-0.022913
3.429000	-0.005528
3.429500	-0.005850
3.430000	-0.007138
3.430500	-0.032892
3.431000	-0.093738
3.431500	-0.217038
3.432000	-0.241505
3.432500	-0.194181
3.433000	-0.141706
3.433500	-0.069915
3.434000	0.000910
3.434500	0.033104
3.435000	0.066907
3.435500	0.079784
3.436000	0.061112
3.436500	0.032782
3.437000	-0.009713
3.437500	-0.039975
3.438000	-0.064764
3.438500	-0.090518
3.439000	-0.048345
3.439500	-0.020981
3.440000	-0.003597
3.440500	-0.001343
3.441000	0.003808
3.441500	0.021514
3.442000	0.007027
3.442500	0.003808
3.443000	-0.005850
3.443500	-0.010679
3.444000	0.017329
3.444500	0.023446
3.445000	0.051776
3.445500	0.071414
3.446000	0.028275
3.446500	0.012822
3.447000	0.015397
3.447500	0.040508
3.448000	0.054995
3.448500	0.062399
3.449000	0.061756
3.449500	0.073989
3.450000	0.039220
3.450500	0.002842
3.451000	-0.016474
3.451500	-0.040297
3.452000	-0.055106
3.452500	-0.071202
3.453000	-0.111122
3.453500	-0.173899
3.454000	-0.175830
3.454500	-0.093416
3.455000	-0.000377
3.455500	0.080106
3.456000	0.126142
3.456500	0.140307
3.457000	0.122279
3.457500	0.034069
3.458000	-0.042229
3.458500	-0.058003
3.459000	-0.039331
3.459500	-0.045126
3.460000	-0.095347
3.460500	-0.118205
3.461000	-0.131726
3.461500	-0.130438
3.462000	-0.107903
3.462500	-0.090196
3.463000	-0.114985
3.463500	-0.100176
3.464000	-0.043516
3.464500	0.006061
3.465000	0.039864
3.465500	0.096202
3.466000	0.135478
3.466500	0.115518
3.467000	0.088798
3.467500	0.071092
3.468000	0.045981
3.468500	0.037933
3.469000	0.054351
3.469500	0.042118
3.470000	0.001232
3.470500	-0.045448
3.471000	-0.079895
3.471500	-0.105005
3.472000	-0.107903
3.472500	-0.057681
3.473000	-0.027420
3.473500	-0.002953
3.474000	0.034391
3.474500	0.036967
3.475000	0.040830
3.475500	0.047269
3.476000	0.038898
3.476500	-0.014542
3.477000	-0.053496
3.477500	-0.076353
3.478000	-0.069915
3.478500	-0.024844
3.479000	0.004774
3.479500	0.008315
3.480000	0.033426
3.480500	0.046947
3.481000	-0.015830
3.481500	-0.076997
3.482000	-0.069271
3.482500	-0.026132
3.483000	0.064975
3.483500	0.159623
3.484000	0.179261
3.484500	0.125498
3.485000	0.084291
3.485500	0.022802
3.486000	-0.011001
3.486500	-0.012933
3.487000	-0.023556
3.487500	-0.039009
3.488000	-0.056715
3.488500	-0.048667
3.489000	-0.041585
3.489500	-0.060901
3.490000	-0.109834
3.490500	-0.179050
3.491000	-0.180981
3.491500	-0.160700
3.492000	-0.119814
3.492500	-0.067017
3.493000	0.033426
3.493500	0.131937
3.494000	0.147390
3.494500	0.098778
3.495000	0.046625
3.495500	0.004452
3.496000	-0.025488
3.496500	-0.040941
3.497000	-0.073456
3.497500	-0.089553
3.498000	-0.057037
3.498500	-0.046092
3.499000	-0.034824
3.499500	0.011534
3.500000	0.059824
3.500500	0.092339
3.501000	0.116484
3.501500	0.063365
3.502000	-0.019693
3.502500	-0.040941
3.503000	-0.037400
3.503500	-0.014864
3.504000	0.000267
3.504500	0.002198
3.505000	-0.024522
3.505500	-0.032571
3.506000	-0.001021
3.506500	0.025377
3.507000	0.026021
3.507500	0.036323
3.508000	0.027309
3.508500	0.009924
3.509000	0.001554
3.509500	0.039864
3.510000	0.048878
3.510500	-0.000377
3.511000	-0.036434
3.511500	-0.062188
3.512000	-0.040619
3.512500	-0.034824
3.513000	-0.061223
3.513500	-0.132370
3.514000	-0.166172
3.514500	-0.135911
3.515000	-0.101464
3.515500	-0.095025
3.516000	-0.066373
3.516500	-0.028707
3.517000	0.034391
3.517500	0.106504
3.518000	0.130971
3.518500	0.106504
3.519000	0.087188
3.519500	0.069804
3.520000	0.056605
3.520500	0.049522
3.521000	0.031494
3.521500	-0.012289
3.522000	-0.055428
3.522500	-0.064764
3.523000	-0.051565
3.523500	-0.026454
3.524000	-0.033536
3.524500	-0.078607
3.525000	-0.087299
3.525500	-0.098567
3.526000	-0.096957
3.526500	-0.055428
3.527000	-0.039653
3.527500	-0.013898
3.528000	0.042118
3.528500	0.100387
3.529000	0.133547
3.529500	0.134190
3.530000	0.080428
3.530500	0.049522
3.531000	0.044049
3.531500	0.022158
3.532000	-0.020337
3.532500	-0.029673
3.533000	-0.043516
3.533500	-0.060579
3.534000	-0.121746
3.534500	-0.152973
3.535000	-0.151364
3.535500	-0.158446
3.536000	-0.102752
3.536500	-0.078285
3.537000	-0.042872
3.537500	-0.009391
3.538000	0.026665
3.538500	0.043727
3.539000	0.058536
3.539500	0.088476
3.540000	0.122601
3.540500	0.108436
3.541000	0.050488
3.541500	0.001232
3.542000	-0.035468
3.542500	-0.057037
3.543000	-0.098889
3.543500	-0.152007
3.544000	-0.138808
3.544500	-0.128506
3.545000	-0.104040
3.545500	-0.057681
3.546000	0.010568
3.546500	0.106504
3.547000	0.155760
3.547500	0.148033
3.548000	0.136766
3.548500	0.122601
3.549000	0.113587
3.549500	0.101675
3.550000	0.066585
3.550500	0.019261
3.551000	-0.026132
3.551500	-0.051886
3.552000	-0.102108
3.552500	-0.120136
3.553000	-0.104040
3.553500	-0.040297
3.554000	0.018617
3.554500	0.012178
3.555000	-0.070880
3.555500	-0.183879
3.556000	-0.278527
3.556500	-0.231203
3.557000	-0.125609
3.557500	-0.029995
3.558000	0.043727
3.558500	0.077208
3.559000	0.066263
3.559500	0.025055
3.560000	0.007027
3.560500	0.031816
3.561000	0.061756
3.561500	0.071092
3.562000	0.073345
3.562500	0.060146
3.563000	0.053063
3.563500	0.044049
3.564000	0.011212
3.564500	0.001554
3.565000	0.034713
3.565500	0.051454
3.566000	0.042118
3.566500	0.009603
3.567000	-0.018727
3.567500	-0.051565
3.568000	-0.068627
3.568500	-0.054140
3.569000	-0.042872
3.569500	-0.040941
3.570000	-0.004562
3.570500	-0.003597
3.571000	-0.001021
3.571500	0.019582
3.572000	0.025055
3.572500	0.021514
3.573000	0.050166
3.573500	0.038255
3.574000	-0.028385
3.574500	-0.063476
3.575000	-0.075066
3.575500	-0.063476
3.576000	-0.019371
3.576500	0.030850
3.577000	0.083647
3.577500	0.072701
3.578000	0.005417
3.578500	-0.026454
3.579000	-0.048989
3.579500	-0.097923
3.580000	-0.150398
3.580500	-0.143959
3.581000	-0.112732
3.581500	-0.081826
3.582000	-0.042229
3.582500	0.007349
3.583000	0.029240
3.583500	0.032782
3.584000	0.041796
3.584500	0.070448
3.585000	0.113587
3.585500	0.118416
3.586000	0.130649
3.586500	0.129039
3.587000	0.082359
3.587500	0.033747
3.588000	-0.015186
3.588500	-0.067661
3.589000	-0.078607
3.589500	-0.082148
3.590000	-0.065408
3.590500	-0.063476
3.591000	-0.070880
3.591500	-0.076675
3.592000	-0.086977
3.592500	-0.073134
3.593000	-0.017440
3.593500	0.035679
3.594000	0.002842
3.594500	-0.077641
3.595000	-0.083436
3.595500	-0.061866
3.596000	-0.045448
3.596500	-0.024844
3.597000	0.004774
3.597500	0.031494
3.598000	0.010246
3.598500	-0.022269
3.599000	-0.035146
3.599500	-0.032892
3.600000	-0.020981
3.600500	-0.002953
3.601000	-0.012289
3.601500	0.004774
3.602000	0.080750
3.602500	0.137732
3.603000	0.135478
3.603500	0.125820
3.604000	0.081072
3.604500	0.030206
3.605000	-0.000377
3.605500	-0.002631
3.606000	0.017007
3.606500	-0.017762
3.607000	-0.051565
3.607500	-0.088265
3.608000	-0.100498
3.608500	-0.118526
3.609000	-0.129472
3.609500	-0.130438
3.610000	-0.159090
3.610500	-0.120458
3.611000	-0.020659
3.611500	0.061112
3.612000	0.083647
3.612500	0.125176
3.613000	0.147068
3.613500	0.123889
3.614000	0.086222
3.614500	0.045981
3.615000	-0.005528
3.615500	-0.011967
3.616000	-0.006172
3.616500	0.022480
3.617000	0.027953
3.617500	0.001232
3.618000	-0.029029
3.618500	-0.061866
3.619000	-0.098889
3.619500	-0.098889
3.620000	-0.059935
3.620500	-0.005528
3.621000	0.030528
3.621500	0.042118
3.622000	0.021836
3.622500	-0.015830
3.623000	-0.069271
3.623500	-0.113054
3.624000	-0.123999
3.624500	-0.093738
3.625000	-0.085046
3.625500	-0.086655
3.626000	-0.057681
3.626500	-0.065086
3.627000	-0.042872
3.627500	-0.033536
3.628000	-0.018084
3.628500	-0.033214
3.629000	-0.021625
3.629500	-0.026132
3.630000	-0.006816
3.630500	0.014432
3.631000	0.031494
3.631500	0.021514
3.632000	0.029884
3.632500	0.050166
3.633000	0.064331
3.633500	0.064009
3.634000	0.047913
3.634500	0.030850
3.635000	0.025377
3.635500	0.026665
3.636000	0.044371
3.636500	0.027953
3.637000	0.008315
3.637500	-0.008104
3.638000	-0.008104
3.638500	0.010890
3.639000	0.004452
3.639500	-0.029673
3.640000	-0.099211
3.640500	-0.120780
3.641000	-0.114019
3.641500	-0.096957
3.642000	-0.076675
3.642500	-0.033536
3.643000	-0.000699
3.643500	0.008315
3.644000	0.054351
3.644500	0.086544
3.645000	0.108114
3.645500	0.108436
3.646000	0.092983
3.646500	0.070126
3.647000	0.065619
3.647500	0.038576
3.648000	-0.013898
3.648500	-0.042550
3.649000	-0.021625
3.649500	-0.016474
3.650000	-0.034824
3.650500	-0.029351
3.651000	-0.020337
3.651500	-0.009713
3.652000	-0.002631
3.652500	-0.004562
3.653000	-0.015508
3.653500	-0.025166
3.654000	-0.036756
3.654500	-5.540373E-5
3.655000	0.024411
3.655500	-0.007460
3.656000	-0.045770
3.656500	-0.066373
3.657000	-0.058325
3.657500	-0.050921
3.658000	-0.025488
3.658500	0.018939
3.659000	-0.036756
3.659500	-0.103396
3.660000	-0.081826
3.660500	-0.028385
3.661000	-0.023878
3.661500	-0.057681
3.662000	-0.109190
3.662500	-0.130760
3.663000	-0.177762
3.663500	-0.130438
3.664000	-0.050921
3.664500	0.010246
3.665000	0.076243
3.665500	0.114874
3.666000	0.120669
3.666500	0.104573
3.667000	0.092339
3.667500	0.093305
3.668000	0.071735
3.668500	0.051776
3.669000	0.043727
3.669500	0.039220
3.670000	0.022480
3.670500	-0.013577
3.671000	-0.068949
3.671500	-0.112410
3.672000	-0.090196
3.672500	-0.048345
3.673000	-0.035790
3.673500	-0.057681
3.674000	-0.056072
3.674500	-0.032892
3.675000	-0.005206
3.675500	-0.007782
3.676000	-0.017118
3.676500	-0.020015
3.677000	-0.019693
3.677500	-0.036434
3.678000	-0.025488
3.678500	0.013466
3.679000	0.051132
3.679500	0.073989
3.680000	0.057570
3.680500	0.024733
3.681000	-0.014864
3.681500	0.004774
3.682000	0.037611
3.682500	0.038255
3.683000	0.023446
3.683500	0.005096
3.684000	0.032782
3.684500	0.034713
3.685000	0.021192
3.685500	-0.005850
3.686000	-0.027742
3.686500	-0.020981
3.687000	-0.046092
3.687500	-0.072168
3.688000	-0.102430
3.688500	-0.087621
3.689000	-0.059613
3.689500	-0.042550
3.690000	-0.048345
3.690500	-0.028707
3.691000	-0.001343
3.691500	-0.009713
3.692000	-0.010035
3.692500	0.029562
3.693000	0.046303
3.693500	0.053707
3.694000	0.058536
3.694500	0.029884
3.695000	0.004130
3.695500	-0.007138
3.696000	0.000910
3.696500	-0.016796
3.697000	-0.025810
3.697500	-0.031605
3.698000	-0.044482
3.698500	-0.033536
3.699000	-0.000699
3.699500	-0.004241
3.700000	0.010568
3.700500	-0.006816
3.701000	-0.027098
3.701500	0.010246
3.702000	0.049200
3.702500	0.062078
3.703000	0.054029
3.703500	0.041474
3.704000	0.032782
3.704500	0.038255
3.705000	0.028275
3.705500	-0.021947
3.706000	-0.101464
3.706500	-0.144925
3.707000	-0.125287
3.707500	-0.114341
3.708000	-0.123034
3.708500	-0.114341
3.709000	-0.057681
3.709500	0.006061
3.710000	0.040830
3.710500	0.025699
3.711000	0.016685
3.711500	0.028597
3.712000	0.037933
3.712500	0.015397
3.713000	0.030850
3.713500	0.055961
3.714000	0.063043
3.714500	0.042440
3.715000	0.045659
3.715500	0.049522
3.716000	0.038255
3.716500	0.038576
3.717000	0.002198
3.717500	-0.040297
3.718000	-0.077963
3.718500	-0.123677
3.719000	-0.184523
3.719500	-0.181947
3.720000	-0.103074
3.720500	-0.028064
3.721000	-0.034502
3.721500	-0.058003
3.722000	-0.006494
3.722500	0.067228
3.723000	0.077530
3.723500	0.073989
3.724000	0.086866
3.724500	0.073023
3.725000	0.031494
3.725500	-0.011323
3.726000	0.009924
3.726500	0.000588
3.727000	0.003486
3.727500	-0.022591
3.728000	-0.036112
3.728500	-0.017440
3.729000	0.001876
3.729500	0.007671
3.730000	-0.019693
3.730500	-0.042229
3.731000	-0.041585
3.731500	-0.019049
3.732000	-0.016474
3.732500	-0.040297
3.733000	-0.012289
3.733500	0.016363
3.734000	0.015719
3.734500	-0.020015
3.735000	-0.053818
3.735500	-0.062832
3.736000	-0.070880
3.736500	-0.035146
3.737000	-0.002631
3.737500	-0.001343
3.738000	-0.003275
3.738500	-0.008104
3.739000	0.004774
3.739500	0.002842
3.740000	0.019582
3.740500	0.011856
3.741000	0.032782
3.741500	0.043084
3.742000	0.018295
3.742500	0.010246
3.743000	-0.014220
3.743500	-0.039975
3.744000	-0.039009
3.744500	-0.027420
3.745000	0.015075
3.745500	0.076564
3.746000	0.079140
3.746500	0.076564
3.747000	0.043727
3.747500	0.000588
3.748000	-0.031283
3.748500	-0.028064
3.749000	-0.038687
3.749500	-0.040941
3.750000	-0.049633
3.750500	-0.070880
3.751000	-0.107259
3.751500	-0.098245
3.752000	-0.021947
3.752500	0.012822
3.753000	-0.002631
3.753500	-0.014864
3.754000	-0.019049
3.754500	-0.011967
3.755000	0.010890
3.755500	0.051454
3.756000	0.064653
3.756500	0.066585
3.757000	0.078174
3.757500	0.051132
3.758000	0.014432
3.758500	-0.018406
3.759000	-0.025488
3.759500	-0.022269
3.760000	-0.008748
3.760500	0.037289
3.761000	0.028919
3.761500	0.003164
3.762000	-0.017118
3.762500	-0.047701
3.763000	-0.078607
3.763500	-0.110478
3.764000	-0.136555
3.764500	-0.114341
3.765000	-0.078285
3.765500	-0.070880
3.766000	-0.023878
3.766500	0.023124
3.767000	0.043727
3.767500	0.019904
3.768000	-0.006816
3.768500	0.006061
3.769000	0.011212
3.769500	0.017329
3.770000	-0.000377
3.770500	-0.048023
3.771000	-0.085367
3.771500	-0.048667
3.772000	-0.006494
3.772500	0.011534
3.773000	0.022480
3.773500	0.023768
3.774000	0.002198
3.774500	-0.023878
3.775000	-0.009391
3.775500	0.019904
3.776000	0.049522
3.776500	0.031172
3.777000	-0.002953
3.777500	-0.055106
3.778000	-0.071202
3.778500	-0.015830
3.779000	0.013466
3.779500	-0.004884
3.780000	-0.035146
3.780500	-0.029351
3.781000	0.021836
3.781500	0.075277
3.782000	0.092983
3.782500	0.091373
3.783000	0.069160
3.783500	0.020548
3.784000	-0.058325
3.784500	-0.097279
3.785000	-0.070559
3.785500	-0.030961
3.786000	0.004774
3.786500	0.013788
3.787000	-0.010679
3.787500	-0.025810
3.788000	-0.039331
3.788500	-0.075388
3.789000	-0.116917
3.789500	-0.096957
3.790000	-0.073778
3.790500	-0.044482
3.791000	-0.040619
3.791500	-0.019371
3.792000	-0.016796
3.792500	-0.012611
3.793000	0.005096
3.793500	0.025377
3.794000	0.008637
3.794500	0.010568
3.795000	0.033426
3.795500	0.042762
3.796000	0.033426
3.796500	0.022480
3.797000	0.006383
3.797500	0.000267
3.798000	0.015397
3.798500	0.035357
3.799000	0.042118
3.799500	0.047269
3.800000	0.035357
3.800500	0.028597
3.801000	0.021514
3.801500	0.017329
3.802000	0.010246
3.802500	-0.019693
3.803000	-0.044160
3.803500	-0.043516
3.804000	-0.032892
3.804500	-0.016152
3.805000	-0.036112
3.805500	-0.070880
3.806000	-0.072168
3.806500	-0.047701
3.807000	-0.011645
3.807500	0.009603
3.808000	-0.011001
3.808500	-0.038043
3.809000	-0.003919
3.809500	0.017651
3.810000	0.017329
3.810500	0.003808
3.811000	-0.017762
3.811500	-0.042550
3.812000	-0.047058
3.812500	-0.034180
3.813000	0.010568
3.813500	0.049844
3.814000	0.057892
3.814500	0.058214
3.815000	0.058214
3.815500	0.063365
3.816000	0.073023
3.816500	0.069482
3.817000	0.044049
3.817500	0.005739
3.818000	-0.001665
3.818500	-0.004884
3.819000	-0.022269
3.819500	0.014110
3.820000	0.019582
3.820500	0.010568
3.821000	-0.032249
3.821500	-0.087621
3.822000	-0.098245
3.822500	-0.045126
3.823000	0.003808
3.823500	0.019904
3.824000	0.010890
3.824500	-0.008426
3.825000	-0.028385
3.825500	-0.069593
3.826000	-0.086333
3.826500	-0.089231
3.827000	-0.154905
3.827500	-0.160700
3.828000	-0.142349
3.828500	-0.048989
3.829000	0.008959
3.829500	0.001554
3.830000	0.036001
3.830500	0.107470
3.831000	0.113909
3.831500	0.111977
3.832000	0.114874
3.832500	0.112299
3.833000	0.058536
3.833500	-0.033858
3.834000	-0.105971
3.834500	-0.155549
3.835000	-0.148144
3.835500	-0.101786
3.836000	-0.107903
3.836500	-0.114341
3.837000	-0.108225
3.837500	-0.065408
3.838000	-0.031605
3.838500	-5.540373E-5
3.839000	-0.028707
3.839500	-0.055428
3.840000	-0.006816
3.840500	0.061112
3.841000	0.089764
3.841500	0.064009
3.842000	0.017329
3.842500	-0.010357
3.843000	0.012500
3.843500	0.030206
3.844000	0.030528
3.844500	0.000588
3.845000	0.002520
3.845500	0.026665
3.846000	0.047913
3.846500	0.068194
3.847000	0.086866
3.847500	0.076243
3.848000	0.035035
3.848500	0.009281
3.849000	-0.011323
3.849500	-0.010679
3.850000	0.025699
3.850500	0.043084
3.851000	0.029240
3.851500	0.003808
3.852000	-0.023878
3.852500	-0.042550
3.853000	-0.021947
3.853500	-0.019371
3.854000	-0.052208
3.854500	-0.111444
3.855000	-0.114985
3.855500	-0.098889
3.856000	-0.082792
3.856500	-0.092450
3.857000	-0.153617
3.857500	-0.166494
3.858000	-0.089553
3.858500	0.003486
3.859000	0.050166
3.859500	0.062721
3.860000	0.080106
3.860500	0.125498
3.861000	0.107792
3.861500	0.044371
3.862000	0.013144
3.862500	0.027631
3.863000	0.036001
3.863500	0.006705
3.864000	-0.020981
3.864500	-0.029029
3.865000	-0.020981
3.865500	0.001876
3.866000	0.007027
3.866500	0.035357
3.867000	0.071092
3.867500	0.079784
3.868000	0.067228
3.868500	0.051454
3.869000	0.022158
3.869500	-0.040941
3.870000	-0.044482
3.870500	0.009603
3.871000	0.036645
3.871500	0.032138
3.872000	-0.012933
3.872500	-0.044482
3.873000	-0.070237
3.873500	-0.082148
3.874000	-0.125287
3.874500	-0.148144
3.875000	-0.118526
3.875500	-0.078929
3.876000	-0.047379
3.876500	-0.039009
3.877000	-0.024200
3.877500	0.029884
3.878000	0.074633
3.878500	0.148355
3.879000	0.157369
3.879500	0.154150
3.880000	0.113265
3.880500	0.041152
3.881000	0.022480
3.881500	0.023446
3.882000	0.014432
3.882500	-0.010357
3.883000	-0.075066
3.883500	-0.146213
3.884000	-0.127219
3.884500	-0.092772
3.885000	-0.132691
3.885500	-0.174221
3.886000	-0.124643
3.886500	-0.081504
3.887000	-0.086977
3.887500	-0.080538
3.888000	-0.054462
3.888500	-0.013577
3.889000	0.003486
3.889500	0.043405
3.890000	0.115518
3.890500	0.145780
3.891000	0.108436
3.891500	0.031172
3.892000	-0.012289
3.892500	-0.008104
3.893000	-0.001665
3.893500	-0.039653
3.894000	-0.068627
3.894500	-0.037400
3.895000	-0.035146
3.895500	-0.034824
3.896000	-0.067017
3.896500	-0.106937
3.897000	-0.108547
3.897500	-0.098245
3.898000	-0.105005
3.898500	-0.060901
3.899000	0.015719
3.899500	0.083325
3.900000	0.102641
3.900500	0.083003
3.901000	0.048556
3.901500	0.052741
3.902000	0.066263
3.902500	0.070770
3.903000	0.090086
3.903500	0.088476
3.904000	0.054673
3.904500	0.032782
3.905000	0.022802
3.905500	0.028275
3.906000	0.027309
3.906500	0.006705
3.907000	-0.043194
3.907500	-0.105327
3.908000	-0.165850
3.908500	-0.201263
3.909000	-0.190639
3.909500	-0.120780
3.910000	-0.081182
3.910500	-0.080538
3.911000	-0.054140
3.911500	-0.011967
3.912000	0.031494
3.912500	0.020226
3.913000	0.022158
3.913500	0.068516
3.914000	0.097168
3.914500	0.070770
3.915000	0.041152
3.915500	0.028919
3.916000	0.007671
3.916500	-0.012611
3.917000	-0.008748
3.917500	-0.002631
3.918000	-0.014220
3.918500	-0.024844
3.919000	-0.023235
3.919500	-0.021625
3.920000	-0.026454
3.920500	-0.052208
3.921000	-0.076031
3.921500	-0.072168
3.922000	-0.041585
3.922500	-0.007138
3.923000	-0.016152
3.923500	-0.026132
3.924000	-0.010679
3.924500	0.013466
3.925000	0.023124
3.925500	0.041474
3.926000	0.073345
3.926500	0.081072
3.927000	0.067872
3.927500	0.051132
3.928000	0.021192
3.928500	-0.012933
3.929000	-0.012933
3.929500	0.020548
3.930000	0.053385
3.930500	0.061112
3.931000	0.058214
3.931500	0.062078
3.932000	0.036645
3.932500	0.004130
3.933000	0.032782
3.933500	0.053707
3.934000	0.045015
3.934500	0.037289
3.935000	0.008637
3.935500	-0.005206
3.936000	-0.034502
3.936500	-0.062510
3.937000	-0.122068
3.937500	-0.159090
3.938000	-0.188064
3.938500	-0.159090
3.939000	-0.129472
3.939500	-0.105327
3.940000	-0.065408
3.940500	-0.010035
3.941000	0.054029
3.941500	0.051132
3.942000	-0.028707
3.942500	-0.034824
3.943000	0.035679
3.943500	0.092017
3.944000	0.104573
3.944500	0.060468
3.945000	0.016685
3.945500	0.032460
3.946000	0.010568
3.946500	-0.003275
3.947000	0.024411
3.947500	0.029884
3.948000	-0.005528
3.948500	-0.057037
3.949000	-0.123677
3.949500	-0.142671
3.950000	-0.132370
3.950500	-0.094703
3.951000	-0.058647
3.951500	-0.040297
3.952000	-0.040297
3.952500	-0.016796
3.953000	0.017007
3.953500	0.016363
3.954000	0.000910
3.954500	-0.019049
3.955000	-0.023235
3.955500	-0.058969
3.956000	-0.103074
3.956500	-0.084080
3.957000	-0.023878
3.957500	-0.004562
3.958000	0.003164
3.958500	0.008637
3.959000	-0.005850
3.959500	0.012822
3.960000	0.033104
3.960500	0.033747
3.961000	0.039220
3.961500	0.043084
3.962000	0.036323
3.962500	0.016041
3.963000	-0.000699
3.963500	0.002198
3.964000	-0.013255
3.964500	-0.041263
3.965000	-0.032892
3.965500	-5.540373E-5
3.966000	0.028919
3.966500	0.029240
3.967000	0.017973
3.967500	0.018295
3.968000	0.010246
3.968500	-0.005206
3.969000	-0.021303
3.969500	0.019261
3.970000	0.088154
3.970500	0.147712
3.971000	0.202762
3.971500	0.238175
3.972000	0.218859
3.972500	0.162842
3.973000	0.111333
3.973500	0.039220
3.974000	-0.016152
3.974500	-0.054140
3.975000	-0.060579
3.975500	-0.116595
3.976000	-0.140418
3.976500	-0.199653
3.977000	-0.292048
3.977500	-0.383155
3.978000	-0.396354
3.978500	-0.294945
3.979000	-0.215428
3.979500	-0.135589
3.980000	-0.025488
3.980500	0.069160
3.981000	0.133547
3.981500	0.153184
3.982000	0.109080
3.982500	0.037611
3.983000	0.009281
3.983500	0.026343
3.984000	0.052098
3.984500	0.052098
3.985000	0.027309
3.985500	0.000588
3.986000	-0.003275
3.986500	0.007349
3.987000	-0.014220
3.987500	-0.019693
3.988000	-0.030639
3.988500	-0.033536
3.989000	-0.004884
3.989500	0.024090
3.990000	0.039864
3.990500	0.043405
3.991000	0.015075
3.991500	-0.008748
3.992000	-0.028385
3.992500	-0.001021
3.993000	0.032460
3.993500	0.055961
3.994000	0.069160
3.994500	0.085579
3.995000	0.102319
3.995500	0.113909
3.996000	0.094593
3.996500	0.040830
3.997000	0.009603
3.997500	-0.001021
3.998000	-0.003597
3.998500	-0.011323
3.999000	-0.036434
3.999500	-0.055106
4.000000	-0.077319
4.000500	-0.064442
4.001000	-0.035146
4.001500	-0.009070
4.002000	-0.010679
4.002500	0.027953
4.003000	0.028919
4.003500	-0.001343
4.004000	-0.021303
4.004500	-0.053174
4.005000	-0.070559
4.005500	-0.040941
4.006000	-0.054462
4.006500	-0.117561
4.007000	-0.148788
4.007500	-0.168748
4.008000	-0.165850
4.008500	-0.148466
4.009000	-0.137520
4.009500	-0.155227
4.010000	-0.114985
4.010500	0.002520
4.011000	0.113587
4.011500	0.128396
4.012000	0.139341
4.012500	0.141273
4.013000	0.116806
4.013500	0.066263
4.014000	0.022802
4.014500	-0.030961
4.015000	-0.048667
4.015500	-0.055750
4.016000	-0.031927
4.016500	-0.029673
4.017000	0.002520
4.017500	0.038576
4.018000	0.041152
4.018500	-0.026132
4.019000	-0.093416
4.019500	-0.078929
4.020000	-0.060257
4.020500	-0.047379
4.021000	-0.024844
4.021500	-0.042550
4.022000	-0.073134
4.022500	-0.048345
4.023000	-0.024200
4.023500	-0.014542
4.024000	-0.003275
4.024500	0.015075
4.025000	0.022480
4.025500	0.051776
4.026000	0.064009
4.026500	0.059502
4.027000	0.035035
4.027500	0.021192
4.028000	0.012822
4.028500	0.027309
4.029000	0.022802
4.029500	0.000267
4.030000	0.000267
4.030500	0.024090
4.031000	0.040186
4.031500	0.036001
4.032000	0.021514
4.032500	0.023124
4.033000	-0.001021
4.033500	-0.017118
4.034000	0.008315
4.034500	0.050488
4.035000	0.063365
4.035500	0.082037
4.036000	0.053063
4.036500	0.023446
4.037000	-0.048023
4.037500	-0.090196
4.038000	-0.100176
4.038500	-0.084724
4.039000	-0.087943
4.039500	-0.126575
4.040000	-0.142349
4.040500	-0.153295
4.041000	-0.105649
4.041500	-0.033858
4.042000	0.033747
4.042500	0.114874
4.043000	0.112621
4.043500	0.089442
4.044000	0.057249
4.044500	0.050488
4.045000	0.048556
4.045500	0.033747
4.046000	0.007349
4.046500	-0.023235
4.047000	-0.056394
4.047500	-0.075709
4.048000	-0.042872
4.048500	-0.006816
4.049000	0.007993
4.049500	-0.004562
4.050000	-0.012933
4.050500	-0.012611
4.051000	-0.033858
4.051500	-0.040941
4.052000	0.002842
4.052500	0.055639
4.053000	0.074955
4.053500	0.065941
4.054000	0.024411
4.054500	-0.031927
4.055000	-0.078607
4.055500	-0.082148
4.056000	-0.040297
4.056500	-0.005850
4.057000	-0.015508
4.057500	-0.056394
4.058000	-0.066695
4.058500	-0.033214
4.059000	-0.011323
4.059500	-0.034502
4.060000	-0.065408
4.060500	-0.037078
4.061000	0.018295
4.061500	0.001554
4.062000	0.042118
4.062500	0.115196
4.063000	0.138697
4.063500	0.107148
4.064000	0.065941
4.064500	0.036645
4.065000	0.007993
4.065500	-0.028707
4.066000	-0.042872
4.066500	-0.047701
4.067000	-0.030639
4.067500	0.007671
4.068000	0.034069
4.068500	0.087832
4.069000	0.071735
4.069500	0.005417
4.070000	-0.037078
4.070500	-0.058325
4.071000	-0.045448
4.071500	-0.039009
4.072000	-0.057681
4.072500	-0.080217
4.073000	-0.094060
4.073500	-0.102430
4.074000	-0.098245
4.074500	-0.081826
4.075000	-0.070559
4.075500	-0.078285
4.076000	-0.073456
4.076500	-0.074422
4.077000	-0.129794
4.077500	-0.136877
4.078000	-0.116917
4.078500	-0.087621
4.079000	-0.061866
4.079500	-0.056394
4.080000	-0.020981
4.080500	0.018295
4.081000	0.056927
4.081500	0.095880
4.082000	0.121957
4.082500	0.136444
4.083000	0.120991
4.083500	0.086866
4.084000	0.054673
4.084500	0.023124
4.085000	0.012500
4.085500	-0.016796
4.086000	-0.027742
4.086500	-0.020659
4.087000	-0.045770
4.087500	-0.066052
4.088000	-0.063476
4.088500	-0.055106
4.089000	-0.052852
4.089500	-0.049955
4.090000	-0.024200
4.090500	0.000910
4.091000	0.028275
4.091500	0.042762
4.092000	0.024090
4.092500	-0.012289
4.093000	-0.011967
4.093500	-0.010679
4.094000	0.019904
4.094500	0.049200
4.095000	0.065941
4.095500	0.041152
4.096000	0.025699
4.096500	0.017329
4.097000	-0.002309
4.097500	-0.040297
4.098000	-0.047379
4.098500	-0.042229
4.099000	-0.062510
4.099500	-0.053818
4.100000	-0.057681
4.100500	-0.047701
4.101000	-0.061544
4.101500	-0.050921
4.102000	-0.032249
4.102500	0.013466
4.103000	0.074311
4.103500	0.069482
4.104000	0.046303
4.104500	0.018295
4.105000	0.013144
4.105500	0.036323
4.106000	0.051776
4.106500	0.064009
4.107000	0.074633
4.107500	0.061756
4.108000	0.055639
4.108500	0.023768
4.109000	-0.017118
4.109500	-0.047701
4.110000	-0.061866
4.110500	-0.072812
4.111000	-0.055750
4.111500	-0.061544
4.112000	-0.070559
4.112500	-0.076353
4.113000	-0.083758
4.113500	-0.105005
4.114000	-0.124321
4.114500	-0.123355
4.115000	-0.059613
4.115500	-0.009713
4.116000	0.017007
4.116500	0.037611
4.117000	0.054351
4.117500	0.066907
4.118000	0.100387
4.118500	0.102319
4.119000	0.036967
4.119500	-0.001021
4.120000	0.014753
4.120500	0.033104
4.121000	0.009924
4.121500	-0.021625
4.122000	-0.034824
4.122500	-0.029029
4.123000	-0.026454
4.123500	-0.024200
4.124000	-0.037400
4.124500	-0.043194
4.125000	-0.035790
4.125500	-0.033536
4.126000	-0.065730
4.126500	-0.095025
4.127000	-0.075388
4.127500	-0.051565
4.128000	-0.042229
4.128500	-0.024522
4.129000	0.028597
4.129500	0.042118
4.130000	0.027953
4.130500	0.062078
4.131000	0.115840
4.131500	0.138375
4.132000	0.116806
4.132500	0.093627
4.133000	0.055317
4.133500	0.024090
4.134000	0.002842
4.134500	-0.011001
4.135000	0.048878
4.135500	0.099744
4.136000	0.100066
4.136500	0.034391
4.137000	-0.035146
4.137500	-0.012289
4.138000	-0.002631
4.138500	-0.008748
4.139000	0.001232
4.139500	-0.005850
4.140000	0.009281
4.140500	-0.030961
4.141000	-0.094060
4.141500	-0.109190
4.142000	-0.111444
4.142500	-0.134301
4.143000	-0.230881
4.143500	-0.313939
4.144000	-0.245690
4.144500	-0.099854
4.145000	-0.009713
4.145500	0.044693
4.146000	0.094593
4.146500	0.129361
4.147000	0.108114
4.147500	0.069160
4.148000	0.077208
4.148500	0.049844
4.149000	0.015397
4.149500	0.003164
4.150000	-0.029995
4.150500	-0.049311
4.151000	-0.022591
4.151500	-0.023556
4.152000	-0.039331
4.152500	-0.022591
4.153000	0.025699
4.153500	0.021514
4.154000	0.005417
4.154500	0.004452
4.155000	-0.004241
4.155500	-0.019693
4.156000	-0.047701
4.156500	-0.044160
4.157000	-0.023556
4.157500	-5.540373E-5
4.158000	0.009924
4.158500	0.028597
4.159000	0.030850
4.159500	0.047591
4.160000	0.099100
4.160500	0.146424
4.161000	0.075599
4.161500	0.000267
4.162000	-0.007460
4.162500	0.020226
4.163000	0.071735
4.163500	0.086222
4.164000	0.014110
4.164500	-0.093738
4.165000	-0.140418
4.165500	-0.144281
4.166000	-0.124321
4.166500	-0.065408
4.167000	-0.055750
4.167500	-0.046092
4.168000	-0.070559
4.168500	-0.057359
4.169000	-0.036112
4.169500	-0.035790
4.170000	-0.026776
4.170500	-0.050277
4.171000	-0.112410
4.171500	-0.160378
4.172000	-0.153295
4.172500	-0.109512
4.173000	-0.046414
4.173500	0.052420
4.174000	0.127752
4.174500	0.163486
4.175000	0.138054
4.175500	0.105216
4.176000	0.059180
4.176500	0.026665
4.177000	0.047591
4.177500	0.094593
4.178000	0.110367
4.178500	0.087832
4.179000	0.031816
4.179500	-0.038687
4.180000	-0.053496
4.180500	-0.059291
4.181000	-0.055428
4.181500	-0.101142
4.182000	-0.076997
4.182500	-0.036112
4.183000	-0.027098
4.183500	-0.007782
4.184000	0.006705
4.184500	0.013144
4.185000	0.014432
4.185500	-0.006494
4.186000	-0.036756
4.186500	-0.058969
4.187000	-0.149432
4.187500	-0.237641
4.188000	-0.262108
4.188500	-0.200619
4.189000	-0.104040
4.189500	-0.069915
4.190000	-0.035790
4.190500	0.015719
4.191000	0.074633
4.191500	0.080750
4.192000	0.049522
4.192500	0.064653
4.193000	0.078818
4.193500	0.066907
4.194000	0.054029
4.194500	0.026665
4.195000	-0.009391
4.195500	-0.010357
4.196000	0.035357
4.196500	0.072379
4.197000	0.039220
4.197500	0.030850
4.198000	0.028919
4.198500	0.041796
4.199000	0.007993
4.199500	-0.020015
4.200000	-0.070559
4.200500	-0.090840
4.201000	-0.095669
4.201500	-0.036434
4.202000	0.019904
4.202500	0.016363
4.203000	-0.012933
4.203500	-0.044160
4.204000	-0.065408
4.204500	-0.070880
4.205000	-0.069271
4.205500	-0.080217
4.206000	-0.036434
4.206500	0.015397
4.207000	0.000588
4.207500	0.006705
4.208000	0.021514
4.208500	0.036645
4.209000	0.038255
4.209500	0.050166
4.210000	0.060146
4.210500	0.056605
4.211000	0.067550
4.211500	0.071735
4.212000	0.049522
4.212500	0.038898
4.213000	0.031172
4.213500	-0.011967
4.214000	-0.038365
4.214500	-0.058647
4.215000	-0.092128
4.215500	-0.126575
4.216000	-0.139774
4.216500	-0.105649
4.217000	-0.061866
4.217500	0.027309
4.218000	0.088154
4.218500	0.067872
4.219000	-0.022269
4.219500	-0.060901
4.220000	-0.015508
4.220500	0.012822
4.221000	-0.014542
4.221500	-0.019049
4.222000	-0.008426
4.222500	0.015719
4.223000	0.016363
4.223500	-0.000377
4.224000	-0.013898
4.224500	-0.009391
4.225000	-0.027742
4.225500	-0.058969
4.226000	-0.059291
4.226500	-0.054462
4.227000	-0.016152
4.227500	0.027631
4.228000	0.057249
4.228500	0.067550
4.229000	0.087510
4.229500	0.074633
4.230000	0.023124
4.230500	-0.026776
4.231000	-0.052852
4.231500	-0.064764
4.232000	-0.049633
4.232500	-0.021303
4.233000	0.006705
4.233500	0.024090
4.234000	0.019261
4.234500	0.012822
4.235000	0.002520
4.235500	-0.004884
4.236000	-0.019371
4.236500	-0.043838
4.237000	-0.045126
4.237500	-0.027742
4.238000	-0.030639
4.238500	-0.025166
4.239000	0.003808
4.239500	0.005417
4.240000	-0.017118
4.240500	-0.011645
4.241000	0.006383
4.241500	0.042440
4.242000	0.070448
4.242500	0.100709
4.243000	0.111977
4.243500	0.110045
4.244000	0.145136
4.244500	0.166062
4.245000	0.120991
4.245500	0.077208
4.246000	0.042118
4.246500	0.006705
4.247000	-0.035468
4.247500	-0.055106
4.248000	-0.043838
4.248500	-0.059613
4.249000	-0.121424
4.249500	-0.212853
4.250000	-0.204804
4.250500	-0.146535
4.251000	-0.117561
4.251500	-0.093094
4.252000	-0.075388
4.252500	-0.083114
4.253000	-0.099211
4.253500	-0.188386
4.254000	-0.233778
4.254500	-0.213496
4.255000	-0.102430
4.255500	-0.005850
4.256000	0.052098
4.256500	0.125820
4.257000	0.163486
4.257500	0.130005
4.258000	0.054673
4.258500	-0.008748
4.259000	-0.006816
4.259500	0.015075
4.260000	0.045981
4.260500	0.071092
4.261000	0.065941
4.261500	0.041796
4.262000	0.033747
4.262500	0.018939
4.263000	-0.002309
4.263500	-0.001665
4.264000	-0.004562
4.264500	-0.014220
4.265000	-0.039331
4.265500	-0.054784
4.266000	-0.056394
4.266500	-0.014220
4.267000	0.021192
4.267500	0.016041
4.268000	-0.004241
4.268500	-0.001021
4.269000	0.001554
4.269500	0.032460
4.270000	0.075921
4.270500	0.078818
4.271000	0.052098
4.271500	0.014753
4.272000	-0.013255
4.272500	-0.052530
4.273000	-0.099211
4.273500	-0.139774
4.274000	-0.199331
4.274500	-0.190639
4.275000	-0.104683
4.275500	-0.051243
4.276000	-0.019371
4.276500	0.028919
4.277000	0.078174
4.277500	0.056927
4.278000	0.033747
4.278500	0.020548
4.279000	0.018295
4.279500	0.010890
4.280000	-0.001987
4.280500	-0.046736
4.281000	-0.069593
4.281500	-0.070237
4.282000	-0.037400
4.282500	0.022480
4.283000	0.065297
4.283500	0.072701
4.284000	0.056605
4.284500	0.032782
4.285000	0.014753
4.285500	0.005096
4.286000	-0.002631
4.286500	-0.037721
4.287000	-0.079573
4.287500	-0.081826
4.288000	-0.082792
4.288500	-0.045126
4.289000	-0.021947
4.289500	0.001554
4.290000	0.037611
4.290500	0.037933
4.291000	0.039542
4.291500	0.019261
4.292000	-0.003275
4.292500	-0.020337
4.293000	-0.019693
4.293500	0.005739
4.294000	0.005096
4.294500	0.002520
4.295000	0.026021
4.295500	0.026665
4.296000	-0.008426
4.296500	-0.044160
4.297000	-0.061223
4.297500	-0.052208
4.298000	-0.036112
4.298500	-0.034502
4.299000	-0.028064
4.299500	-0.024522
4.300000	-0.013255
4.300500	-0.004562
4.301000	-0.011001
4.301500	-0.018084
4.302000	-0.006494
4.302500	0.053707
4.303000	0.079462
4.303500	0.056283
4.304000	0.037933
4.304500	0.023768
4.305000	0.049522
4.305500	0.092017
4.306000	0.111011
4.306500	0.122601
4.307000	0.078174
4.307500	0.023446
4.308000	-0.048345
4.308500	-0.095669
4.309000	-0.084724
4.309500	-0.104683
4.310000	-0.141706
4.310500	-0.169392
4.311000	-0.167782
4.311500	-0.118526
4.312000	-0.029029
4.312500	0.042118
4.313000	0.117450
4.313500	0.134834
4.314000	0.099422
4.314500	0.053063
4.315000	0.030850
4.315500	0.015719
4.316000	-0.029673
4.316500	-0.064120
4.317000	-0.053174
4.317500	-0.042550
4.318000	-0.052852
4.318500	-0.075388
4.319000	-0.111766
4.319500	-0.128506
4.320000	-0.145247
4.320500	-0.144925
4.321000	-0.087299
4.321500	-0.006494
4.322000	0.072057
4.322500	0.126786
4.323000	0.158335
4.323500	0.174110
4.324000	0.143526
4.324500	0.114552
4.325000	0.097490
4.325500	0.070770
4.326000	0.006061
4.326500	-0.062188
4.327000	-0.091162
4.327500	-0.100498
4.328000	-0.101786
4.328500	-0.105649
4.329000	-0.124643
4.329500	-0.125931
4.330000	-0.050277
4.330500	0.031816
4.331000	0.036323
4.331500	0.027309
4.332000	-0.038365
4.332500	-0.082792
4.333000	-0.056394
4.333500	0.002198
4.334000	0.045659
4.334500	0.058858
4.335000	0.054995
4.335500	0.057570
4.336000	0.046947
4.336500	0.019904
4.337000	-0.020015
4.337500	-0.077641
4.338000	-0.103718
4.338500	-0.127219
4.339000	-0.114985
4.339500	-0.047379
4.340000	0.001554
4.340500	0.016685
4.341000	0.026987
4.341500	0.075599
4.342000	0.082359
4.342500	-0.001665
4.343000	-0.025810
4.343500	0.048878
4.344000	0.105216
4.344500	0.159301
4.345000	0.138697
4.345500	0.093949
4.346000	0.055961
4.346500	0.009924
4.347000	-0.016796
4.347500	-0.053818
4.348000	-0.034824
4.348500	-0.027742
4.349000	-0.079251
4.349500	-0.139130
4.350000	-0.227340
4.350500	-0.247299
4.351000	-0.196434
4.351500	-0.180659
4.352000	-0.180659
4.352500	-0.089874
4.353000	0.014110
4.353500	0.087188
4.354000	0.140307
4.354500	0.142883
4.355000	0.106182
4.355500	0.054673
4.356000	0.009281
4.356500	0.003486
4.357000	-5.540373E-5
4.357500	-0.064764
4.358000	-0.080860
4.358500	-0.041263
4.359000	-0.014220
4.359500	-0.011645
4.360000	-0.050277
4.360500	-0.077963
4.361000	-0.070880
4.361500	-0.043838
4.362000	0.017973
4.362500	0.064331
4.363000	0.094271
4.363500	0.086222
4.364000	0.058858
4.364500	0.036323
4.365000	0.028275
4.365500	0.021514
4.366000	0.009924
4.366500	-0.018084
4.367000	0.003486
4.367500	0.043084
4.368000	0.064653
4.368500	0.060146
4.369000	0.023446
4.369500	0.013466
4.370000	0.020548
4.370500	-0.007782
4.371000	-0.046736
4.371500	-0.026132
4.372000	-0.057359
4.372500	-0.079895
4.373000	-0.066373
4.373500	-0.037078
4.374000	-0.005850
4.374500	0.010246
4.375000	0.033747
4.375500	0.055317
4.376000	0.050810
4.376500	0.026343
4.377000	-0.019371
4.377500	-0.025810
4.378000	0.015719
4.378500	0.030528
4.379000	-0.008748
4.379500	-0.077963
4.380000	-0.128184
4.380500	-0.132691
4.381000	-0.119170
4.381500	-0.098889
4.382000	-0.095669
4.382500	-0.105649
4.383000	-0.082792
4.383500	-0.044804
4.384000	-0.003597
4.384500	0.055639
4.385000	0.086544
4.385500	0.090730
4.386000	0.089764
4.386500	0.069482
4.387000	-0.009391
4.387500	-0.029673
4.388000	-0.010679
4.388500	0.018295
4.389000	0.010568
4.389500	-0.000699
4.390000	-0.010357
4.390500	0.007993
4.391000	0.033747
4.391500	0.003164
4.392000	-0.049955
4.392500	-0.061223
4.393000	-0.047701
4.393500	-0.059613
4.394000	-0.054784
4.394500	-0.027742
4.395000	0.016363
4.395500	0.059824
4.396000	0.103929
4.396500	0.131293
4.397000	0.111977
4.397500	0.099100
4.398000	0.062399
4.398500	0.041796
4.399000	0.014753
4.399500	-0.032249
4.400000	-0.084402
4.400500	-0.067017
4.401000	-0.046736
4.401500	-0.035468
4.402000	-0.014542
4.402500	-5.540373E-5
4.403000	-0.053496
4.403500	-0.121102
4.404000	-0.165529
4.404500	-0.161987
4.405000	-0.087943
4.405500	-0.076353
4.406000	-0.129794
4.406500	-0.139774
4.407000	-0.040297
4.407500	0.054995
4.408000	0.077530
4.408500	0.071092
4.409000	0.031172
4.409500	0.011212
4.410000	0.026665
4.410500	0.046303
4.411000	0.053707
4.411500	0.080106
4.412000	0.120347
4.412500	0.131293
4.413000	0.113909
4.413500	0.084935
4.414000	0.062399
4.414500	-0.015186
4.415000	-0.073134
4.415500	-0.097601
4.416000	-0.105327
4.416500	-0.111444
4.417000	-0.093416
4.417500	-0.084402
4.418000	-0.062510
4.418500	-0.080860
4.419000	-0.081504
4.419500	-0.016796
4.420000	0.016685
4.420500	0.044049
4.421000	0.110367
4.421500	0.136766
4.422000	0.128718
4.422500	0.083647
4.423000	0.037289
4.423500	-0.015508
4.424000	-0.085046
4.424500	-0.153617
4.425000	-0.144603
4.425500	-0.082470
4.426000	-0.058003
4.426500	-0.089553
4.427000	-0.105005
4.427500	-0.067339
4.428000	-0.039331
4.428500	-0.017118
4.429000	0.044049
4.429500	0.104895
4.430000	0.125820
4.430500	0.114874
4.431000	0.088154
4.431500	0.074633
4.432000	0.049200
4.432500	0.010890
4.433000	-0.027420
4.433500	-0.059291
4.434000	-0.026776
4.434500	-0.014220
4.435000	-0.040619
4.435500	-0.063154
4.436000	-0.096635
4.436500	-0.123677
4.437000	-0.146213
4.437500	-0.124965
4.438000	-0.080860
4.438500	-0.034502
4.439000	-0.001665
4.439500	0.019904
4.440000	0.018939
4.440500	0.001876
4.441000	-0.010357
4.441500	-0.063476
4.442000	-0.099532
4.442500	-0.080217
4.443000	-0.039653
4.443500	-0.017118
4.444000	-0.002309
4.444500	0.025699
4.445000	0.034069
4.445500	0.056605
4.446000	0.074955
4.446500	0.051454
4.447000	0.010246
4.447500	0.018295
4.448000	0.028919
4.448500	0.021836
4.449000	0.022158
4.449500	0.032782
4.450000	0.055639
4.450500	0.075921
4.451000	0.068516
4.451500	0.095237
4.452000	0.095237
4.452500	0.094271
4.453000	0.105860
4.453500	0.098134
4.454000	0.045015
4.454500	-0.013255
4.455000	-0.070880
4.455500	-0.098889
4.456000	-0.094703
4.456500	-0.068627
4.457000	-0.049311
4.457500	-0.067339
4.458000	-0.080860
4.458500	-0.109190
4.459000	-0.134623
4.459500	-0.121424
4.460000	-0.096313
4.460500	-0.089231
4.461000	-0.045770
4.461500	-0.026454
4.462000	-0.040297
4.462500	-0.055750
4.463000	-0.063476
4.463500	-0.049955
4.464000	-0.034180
4.464500	-0.003275
4.465000	0.022802
4.465500	0.032782
4.466000	0.049522
4.466500	0.048878
4.467000	0.026987
4.467500	0.009924
4.468000	0.019261
4.468500	0.044049
4.469000	0.060146
4.469500	0.065297
4.470000	0.045659
4.470500	0.017973
4.471000	-0.007138
4.471500	-0.004241
4.472000	-0.039009
4.472500	-0.041585
4.473000	-0.003275
4.473500	0.038898
4.474000	0.097812
4.474500	0.111655
4.475000	0.074311
4.475500	0.053385
4.476000	0.031816
4.476500	0.002198
4.477000	-0.025810
4.477500	-0.039009
4.478000	-0.077319
4.478500	-0.073778
4.479000	-0.039331
4.479500	-0.024522
4.480000	-0.053174
4.480500	-0.074744
4.481000	-0.122068
4.481500	-0.157158
4.482000	-0.156836
4.482500	-0.118205
4.483000	-0.090196
4.483500	-0.051565
4.484000	-0.034824
4.484500	-0.001021
4.485000	0.027309
4.485500	0.024733
4.486000	0.026665
4.486500	0.061434
4.487000	0.051776
4.487500	0.035679
4.488000	0.026665
4.488500	0.036645
4.489000	0.028597
4.489500	0.006061
4.490000	-0.026132
4.490500	-0.022269
4.491000	-0.011001
4.491500	-0.021947
4.492000	-0.037078
4.492500	-0.043194
4.493000	-0.044160
4.493500	-0.048989
4.494000	-0.057681
4.494500	-0.032249
4.495000	-0.010357
4.495500	-0.001021
4.496000	-0.001665
4.496500	0.006705
4.497000	0.027309
4.497500	0.045981
4.498000	0.060146
4.498500	0.095880
4.499000	0.130005
4.499500	0.109724
4.500000	0.079462
4.500500	0.072701
4.501000	0.058214
4.501500	0.017329
4.502000	-0.008104
4.502500	-0.013577
4.503000	-0.008426
4.503500	-0.021625
4.504000	-0.039653
4.504500	-0.032571
4.505000	-0.002953
4.505500	0.001232
4.506000	0.002520
4.506500	-0.001021
4.507000	-0.000377
4.507500	-0.042872
4.508000	-0.095991
4.508500	-0.123034
4.509000	-0.123034
4.509500	-0.118205
4.510000	-0.094060
4.510500	-0.035146
4.511000	-0.006172
4.511500	0.004452
4.512000	-0.007138
4.512500	-0.034502
4.513000	-0.076031
4.513500	-0.119492
4.514000	-0.129150
4.514500	-0.074744
4.515000	0.051454
4.515500	0.119381
4.516000	0.099422
4.516500	0.062399
4.517000	0.036323
4.517500	0.008959
4.518000	-0.037078
4.518500	-0.069915
4.519000	-0.081182
4.519500	-0.060901
4.520000	-0.038365
4.520500	-0.072490
4.521000	-0.108225
4.521500	-0.100820
4.522000	-0.084402
4.522500	-0.081504
4.523000	-0.059291
4.523500	-0.011001
4.524000	0.047269
4.524500	0.094593
4.525000	0.125176
4.525500	0.142561
4.526000	0.159301
4.526500	0.154150
4.527000	0.132903
4.527500	0.103285
4.528000	0.089764
4.528500	0.077852
4.529000	0.058214
4.529500	0.036645
4.530000	-0.001665
4.530500	-0.032571
4.531000	-0.042550
4.531500	-0.073456
4.532000	-0.057037
4.532500	-0.045448
4.533000	-0.048667
4.533500	-0.100176
4.534000	-0.140096
4.534500	-0.089553
4.535000	-0.049633
4.535500	-0.027098
4.536000	0.004774
4.536500	0.007027
4.537000	-0.003275
4.537500	-0.009391
4.538000	-0.023556
4.538500	-0.059291
4.539000	-0.044482
4.539500	-0.012933
4.540000	-0.025810
4.540500	-0.033536
4.541000	0.009603
4.541500	0.020548
4.542000	0.060146
4.542500	0.090408
4.543000	0.087510
4.543500	0.072701
4.544000	0.033104
4.544500	-0.028385
4.545000	-0.044482
4.545500	-0.025166
4.546000	-0.020981
4.546500	-0.026776
4.547000	-0.021303
4.547500	-0.016474
4.548000	-0.015830
4.548500	-0.023235
4.549000	-0.053174
4.549500	-0.092772
4.550000	-0.108225
4.550500	-0.105649
4.551000	-0.121102
4.551500	-0.102752
4.552000	-0.093094
4.552500	-0.080538
4.553000	-0.027098
4.553500	0.033104
4.554000	0.054995
4.554500	0.018295
4.555000	-0.003597
4.555500	0.017651
4.556000	0.065619
4.556500	0.112943
4.557000	0.123889
4.557500	0.111011
4.558000	0.067872
4.558500	0.052098
4.559000	0.054351
4.559500	0.044371
4.560000	0.031494
4.560500	0.017329
4.561000	0.001554
4.561500	-0.017440
4.562000	-0.026776
4.562500	-0.045126
4.563000	-0.082148
4.563500	-0.124321
4.564000	-0.109512
4.564500	-0.066373
4.565000	-0.024844
4.565500	-0.085046
4.566000	-0.098889
4.566500	-0.028707
4.567000	0.049844
4.567500	0.037611
4.568000	-0.010679
4.568500	-0.034502
4.569000	-0.043838
4.569500	-0.015830
4.570000	-0.012289
4.570500	-0.013255
4.571000	0.006061
4.571500	0.029884
4.572000	0.031494
4.572500	0.015397
4.573000	-0.012933
4.573500	-0.035790
4.574000	-0.019049
4.574500	-0.001987
4.575000	-0.020015
4.575500	-0.068305
4.576000	-0.064764
4.576500	-0.025488
4.577000	0.018617
4.577500	0.029240
4.578000	-0.017118
4.578500	-0.032571
4.579000	0.009281
4.579500	0.036323
4.580000	0.045337
4.580500	0.022802
4.581000	-0.027420
4.581500	-0.037721
4.582000	-0.011001
4.582500	-0.002953
4.583000	-0.031605
4.583500	-0.051565
4.584000	-0.045448
4.584500	-0.014864
4.585000	0.043727
4.585500	0.068838
4.586000	0.070770
4.586500	0.061434
4.587000	0.049522
4.587500	0.026987
4.588000	0.020870
4.588500	0.043727
4.589000	0.056927
4.589500	0.045981
4.590000	-0.006172
4.590500	-0.019371
4.591000	-0.018084
4.591500	-5.540373E-5
4.592000	-0.001665
4.592500	0.019261
4.593000	0.020548
4.593500	-0.011967
4.594000	-0.059613
4.594500	-0.047379
4.595000	-0.045448
4.595500	-0.077319
4.596000	-0.104683
4.596500	-0.067983
4.597000	-0.041585
4.597500	0.009603
4.598000	0.023446
4.598500	0.013144
4.599000	-0.015830
4.599500	-0.053174
4.600000	-0.105971
4.600500	-0.121102
4.601000	-0.123677
4.601500	-0.148466
4.602000	-0.125931
4.602500	-0.085367
4.603000	-0.033858
4.603500	0.020226
4.604000	0.036323
4.604500	0.068516
4.605000	0.095558
4.605500	0.083003
4.606000	0.064653
4.606500	0.071414
4.607000	0.100066
4.607500	0.127752
4.608000	0.114874
4.608500	0.073667
4.609000	0.045015
4.609500	0.026021
4.610000	0.002520
4.610500	-0.027420
4.611000	-0.048667
4.611500	-0.027098
4.612000	-0.021303
4.612500	-5.540373E-5
4.613000	-0.016796
4.613500	-0.068627
4.614000	-0.096957
4.614500	-0.118526
4.615000	-0.064764
4.615500	-0.016152
4.616000	-0.039331
4.616500	-0.065086
4.617000	-0.098245
4.617500	-0.057359
4.618000	0.016685
4.618500	0.089442
4.619000	0.114552
4.619500	0.071735
4.620000	-0.000699
4.620500	-0.039653
4.621000	-0.056072
4.621500	-0.040619
4.622000	-0.019049
4.622500	-0.016474
4.623000	-0.018084
4.623500	-0.075066
4.624000	-0.093416
4.624500	-0.023235
4.625000	0.043084
4.625500	0.024411
4.626000	0.020226
4.626500	0.078174
4.627000	0.085257
4.627500	0.043727
4.628000	0.047591
4.628500	0.030528
4.629000	-0.036112
4.629500	-0.080860
4.630000	-0.057359
4.630500	-0.031605
4.631000	-0.036112
4.631500	-0.088265
4.632000	-0.120136
4.632500	-0.092450
4.633000	-0.077319
4.633500	-0.060901
4.634000	-0.046736
4.634500	-0.038365
4.635000	-0.033858
4.635500	-0.049955
4.636000	-0.076353
4.636500	-0.052530
4.637000	-0.023878
4.637500	-0.010035
4.638000	-0.001343
4.638500	0.001232
4.639000	0.004774
4.639500	0.004774
4.640000	0.014432
4.640500	0.014753
4.641000	0.028275
4.641500	0.037933
4.642000	0.031816
4.642500	0.031816
4.643000	0.017651
4.643500	0.005417
4.644000	-0.003919
4.644500	-0.037400
4.645000	-0.051886
4.645500	-0.038365
4.646000	-0.023556
4.646500	-0.012611
4.647000	-0.008104
4.647500	0.005096
4.648000	0.046625
4.648500	0.056927
4.649000	0.063687
4.649500	0.061756
4.650000	0.064653
4.650500	0.046303
4.651000	0.033426
4.651500	0.043084
4.652000	0.059502
4.652500	0.083647
4.653000	0.073345
4.653500	0.059180
4.654000	0.022158
4.654500	-0.007782
4.655000	-0.016474
4.655500	0.008959
4.656000	0.040508
4.656500	0.053707
4.657000	0.001232
4.657500	-0.079895
4.658000	-0.123355
4.658500	-0.146213
4.659000	-0.173577
4.659500	-0.199975
4.660000	-0.189673
4.660500	-0.152973
4.661000	-0.095991
4.661500	-0.031283
4.662000	0.047269
4.662500	0.104251
4.663000	0.123245
4.663500	0.094593
4.664000	0.049844
4.664500	0.015075
4.665000	-0.029029
4.665500	-0.044482
4.666000	-0.051565
4.666500	-0.076353
4.667000	-0.064764
4.667500	-0.059935
4.668000	-0.084724
4.668500	-0.076031
4.669000	-0.040941
4.669500	0.012178
4.670000	0.046947
4.670500	0.055639
4.671000	0.103929
4.671500	0.112621
4.672000	0.131293
4.672500	0.106182
4.673000	0.075921
4.673500	0.060468
4.674000	0.043727
4.674500	-0.023556
4.675000	-0.071202
4.675500	-0.079895
4.676000	-0.059291
4.676500	-0.067661
4.677000	-0.086011
4.677500	-0.071202
4.678000	-0.071846
4.678500	-0.044482
4.679000	0.013788
4.679500	0.036001
4.680000	0.030528
4.680500	0.002842
4.681000	-0.020659
4.681500	0.038576
4.682000	0.105860
4.682500	0.132259
4.683000	0.100387
4.683500	0.053707
4.684000	-0.001343
4.684500	-0.090840
4.685000	-0.205770
4.685500	-0.245368
4.686000	-0.207702
4.686500	-0.163597
4.687000	-0.136233
4.687500	-0.085046
4.688000	-0.037721
4.688500	-0.002631
4.689000	0.008959
4.689500	-0.005206
4.690000	-0.011323
4.690500	0.003486
4.691000	-0.001665
4.691500	-0.011967
4.692000	-0.000699
4.692500	0.038898
4.693000	0.064331
4.693500	0.072057
4.694000	0.056605
4.694500	0.048234
4.695000	0.053707
4.695500	0.049522
4.696000	0.050166
4.696500	0.045015
4.697000	0.043727
4.697500	0.043405
4.698000	0.026665
4.698500	0.013466
4.699000	0.020548
4.699500	0.021192
4.700000	0.003808
4.700500	-0.009391
4.701000	0.021192
4.701500	0.007671
4.702000	-0.025166
4.702500	-0.025488
4.703000	0.021836
4.703500	0.028597
4.704000	0.015075
4.704500	-0.001021
4.705000	-0.028064
4.705500	-0.039653
4.706000	-0.030961
4.706500	-0.018727
4.707000	-0.017118
4.707500	-0.026776
4.708000	-0.047058
4.708500	-0.084080
4.709000	-0.064120
4.709500	-0.039975
4.710000	-0.069271
4.710500	-0.076353
4.711000	-0.054784
4.711500	-0.039653
4.712000	-0.022269
4.712500	0.059502
4.713000	0.152862
4.713500	0.187953
4.714000	0.148033
4.714500	0.093949
4.715000	0.070126
4.715500	0.026343
4.716000	-0.060257
4.716500	-0.125287
4.717000	-0.131404
4.717500	-0.078285
4.718000	-0.069915
4.718500	-0.053818
4.719000	-0.031283
4.719500	-0.037078
4.720000	-0.088909
4.720500	-0.177440
4.721000	-0.266615
4.721500	-0.220901
4.722000	-0.076997
4.722500	0.010568
4.723000	0.051776
4.723500	0.066263
4.724000	0.097168
4.724500	0.089764
4.725000	0.049522
4.725500	0.009603
4.726000	0.011212
4.726500	0.020548
4.727000	0.031172
4.727500	0.007671
4.728000	-0.009391
4.728500	-0.011645
4.729000	0.029562
4.729500	0.049522
4.730000	0.033104
4.730500	-0.025810
4.731000	-0.084080
4.731500	-0.047701
4.732000	-0.001665
4.732500	0.019261
4.733000	0.054351
4.733500	0.114552
4.734000	0.125820
4.734500	0.077852
4.735000	0.044049
4.735500	0.037611
4.736000	0.044693
4.736500	0.061434
4.737000	0.077208
4.737500	0.055317
4.738000	0.036967
4.738500	0.038576
4.739000	0.014110
4.739500	0.014432
4.740000	0.013788
4.740500	-0.033536
4.741000	-0.129472
4.741500	-0.113376
4.742000	-0.080217
4.742500	-0.071202
4.743000	-0.045448
4.743500	-0.005850
4.744000	0.025377
4.744500	0.014110
4.745000	-0.075066
4.745500	-0.089874
4.746000	-0.053496
4.746500	-0.042229
4.747000	-0.075709
4.747500	-0.116917
4.748000	-0.090518
4.748500	-0.015186
4.749000	0.052098
4.749500	0.052098
4.750000	0.006383
4.750500	0.007027
4.751000	0.035679
4.751500	0.059180
4.752000	0.064653
4.752500	0.047269
4.753000	0.020870
4.753500	-0.022269
4.754000	-0.036112
4.754500	-0.045770
4.755000	-0.092128
4.755500	-0.145569
4.756000	-0.171001
4.756500	-0.163597
4.757000	-0.130116
4.757500	-0.072812
4.758000	-0.010357
4.758500	-0.014864
4.759000	-0.015830
4.759500	-0.001665
4.760000	-0.004562
4.760500	0.008637
4.761000	-0.008104
4.761500	-0.031605
4.762000	-0.092128
4.762500	-0.151685
4.763000	-0.130760
4.763500	-0.024200
4.764000	0.091695
4.764500	0.142883
4.765000	0.116806
4.765500	0.094915
4.766000	0.092661
4.766500	0.089442
4.767000	0.075599
4.767500	0.061112
4.768000	0.050810
4.768500	0.028597
4.769000	0.004452
4.769500	-0.003919
4.770000	-0.020659
4.770500	-0.023878
4.771000	-0.036756
4.771500	-0.055750
4.772000	-0.079251
4.772500	-0.091806
4.773000	-0.092128
4.773500	-0.047379
4.774000	0.000910
4.774500	0.003164
4.775000	0.000267
4.775500	-0.001021
4.776000	-0.001987
4.776500	0.001232
4.777000	0.021192
4.777500	-5.540373E-5
4.778000	-0.010035
4.778500	-0.006172
4.779000	-0.017118
4.779500	-0.048667
4.780000	-0.047379
4.780500	-0.039331
4.781000	-0.010357
4.781500	0.007349
4.782000	0.019904
4.782500	0.019582
4.783000	0.023124
4.783500	0.007027
4.784000	-0.018406
4.784500	-0.069915
4.785000	-0.094382
4.785500	-0.042229
4.786000	-0.004562
4.786500	-0.005206
4.787000	-0.040619
4.787500	-0.058969
4.788000	-0.077963
4.788500	-0.095991
4.789000	-0.095025
4.789500	-0.080538
4.790000	-0.024844
4.790500	0.026021
4.791000	-0.005206
4.791500	-0.006172
4.792000	0.022480
4.792500	0.052098
4.793000	0.094915
4.793500	0.123567
4.794000	0.122923
4.794500	0.102963
4.795000	0.064331
4.795500	0.021192
4.796000	-0.020659
4.796500	-0.017440
4.797000	-0.025810
4.797500	-0.047701
4.798000	-0.089553
4.798500	-0.108547
4.799000	-0.084080
4.799500	-0.015508
4.800000	0.000588
4.800500	-0.011323
4.801000	0.007349
4.801500	0.079462
4.802000	0.096202
4.802500	0.070448
4.803000	0.062721
4.803500	0.112621
4.804000	0.122279
4.804500	0.120669
4.805000	0.057570
4.805500	0.010246
4.806000	-0.036434
4.806500	-0.039331
4.807000	-0.052852
4.807500	-0.090196
4.808000	-0.130116
4.808500	-0.189352
4.809000	-0.197722
4.809500	-0.180016
4.810000	-0.147178
4.810500	-0.061223
4.811000	0.030850
4.811500	0.083969
4.812000	0.107792
4.812500	0.093949
4.813000	0.076564
4.813500	0.054029
4.814000	0.022802
4.814500	-0.001343
4.815000	-0.029673
4.815500	-0.055428
4.816000	-0.079573
4.816500	-0.104683
4.817000	-0.088265
4.817500	-0.061223
4.818000	-0.098889
4.818500	-0.106615
4.819000	-0.053818
4.819500	0.050166
4.820000	0.077530
4.820500	0.018939
4.821000	-0.001665
4.821500	-0.044804
4.822000	-0.022591
4.822500	0.025055
4.823000	0.051454
4.823500	0.091051
4.824000	0.117128
4.824500	0.143204
4.825000	0.132581
4.825500	0.102319
4.826000	0.054673
4.826500	0.060790
4.827000	0.040186
4.827500	0.000267
4.828000	-0.039009
4.828500	-0.006172
4.829000	0.015397
4.829500	-0.002309
4.830000	-0.031927
4.830500	-0.049311
4.831000	-0.081826
4.831500	-0.085367
4.832000	-0.088587
4.832500	-0.097601
4.833000	-0.085689
4.833500	-0.051565
4.834000	-0.022591
4.834500	-0.011967
4.835000	-0.025810
4.835500	-0.079251
4.836000	-0.099532
4.836500	-0.070559
4.837000	-0.035146
4.837500	-0.032249
4.838000	-0.070237
4.838500	-0.058003
4.839000	-0.019049
4.839500	0.013788
4.840000	0.041152
4.840500	0.044693
4.841000	0.025377
4.841500	0.011534
4.842000	0.012500
4.842500	0.014110
4.843000	0.005096
4.843500	-0.019371
4.844000	-0.024844
4.844500	0.005739
4.845000	0.007671
4.845500	0.045659
4.846000	0.089764
4.846500	0.147390
4.847000	0.180227
4.847500	0.165740
4.848000	0.119060
4.848500	0.097490
4.849000	0.083969
4.849500	0.042440
4.850000	-0.008748
4.850500	-0.045448
4.851000	-0.069271
4.851500	-0.061544
4.852000	-0.017440
4.852500	-0.012611
4.853000	-0.032571
4.853500	-0.107259
4.854000	-0.148466
4.854500	-0.148788
4.855000	-0.091162
4.855500	-0.082792
4.856000	-0.141384
4.856500	-0.183879
4.857000	-0.168426
4.857500	-0.155871
4.858000	-0.183235
4.858500	-0.167782
4.859000	-0.148788
4.859500	-0.126253
4.860000	-0.130438
4.860500	-0.070880
4.861000	0.076243
4.861500	0.147712
4.862000	0.189885
4.862500	0.215961
4.863000	0.214995
4.863500	0.169281
4.864000	0.090730
4.864500	0.026665
4.865000	-0.016796
4.865500	-0.019049
4.866000	-0.017118
4.866500	-0.009713
4.867000	-0.003919
4.867500	-0.027098
4.868000	-0.069915
4.868500	-0.084402
4.869000	-0.059613
4.869500	-0.028707
4.870000	0.004774
4.870500	0.024733
4.871000	-0.001987
4.871500	0.005739
4.872000	0.037933
4.872500	0.039864
4.873000	0.026021
4.873500	0.029562
4.874000	0.054673
4.874500	0.043727
4.875000	0.029562
4.875500	-0.003275
4.876000	-0.034180
4.876500	-0.074100
4.877000	-0.086655
4.877500	-0.056715
4.878000	-0.039975
4.878500	-0.018084
4.879000	0.010246
4.879500	0.016685
4.880000	0.017007
4.880500	0.008315
4.881000	0.053385
4.881500	0.046303
4.882000	0.007993
4.882500	-0.007782
4.883000	-0.015830
4.883500	-0.058325
4.884000	-0.118848
4.884500	-0.124321
4.885000	-0.120458
4.885500	-0.081826
4.886000	-0.035468
4.886500	-0.003275
4.887000	-0.000377
4.887500	-0.003919
4.888000	-0.006816
4.888500	-0.017762
4.889000	-0.024200
4.889500	-0.040619
4.890000	-0.048989
4.890500	-0.045448
4.891000	-0.024522
4.891500	0.002842
4.892000	0.017651
4.892500	0.029562
4.893000	0.064975
4.893500	0.105860
4.894000	0.122279
4.894500	0.100387
4.895000	0.073023
4.895500	0.070448
4.896000	0.067550
4.896500	0.064975
4.897000	0.061112
4.897500	0.048234
4.898000	0.027631
4.898500	0.007671
4.899000	-0.004241
4.899500	-0.030639
4.900000	-0.046736
4.900500	-0.115629
4.901000	-0.149754
4.901500	-0.089231
4.902000	-0.013898
4.902500	-0.019049
4.903000	-0.060579
4.903500	-0.072812
4.904000	-0.054784
4.904500	-0.008426
4.905000	0.017651
4.905500	-0.002309
4.906000	-0.050599
4.906500	-0.076997
4.907000	-0.101142
4.907500	-0.137842
4.908000	-0.080538
4.908500	0.002842
4.909000	0.064331
4.909500	0.089764
4.910000	0.096524
4.910500	0.083647
4.911000	0.052741
4.911500	-0.019371
4.912000	-0.069271
4.912500	-0.049955
4.913000	-0.044160
4.913500	-0.041585
4.914000	-0.028385
4.914500	0.002198
4.915000	0.050166
4.915500	0.083647
4.916000	0.088798
4.916500	0.098134
4.917000	0.105216
4.917500	0.142883
4.918000	0.139663
4.918500	0.152541
4.919000	0.142561
4.919500	0.107792
4.920000	0.051132
4.920500	-0.003597
4.921000	-0.048345
4.921500	-0.097601
4.922000	-0.104683
4.922500	-0.126575
4.923000	-0.166816
4.923500	-0.221223
4.924000	-0.216072
4.924500	-0.171323
4.925000	-0.149754
4.925500	-0.156193
4.926000	-0.234422
4.926500	-0.208989
4.927000	-0.117883
4.927500	-0.015508
4.928000	0.069804
4.928500	0.168637
4.929000	0.202118
4.929500	0.165096
4.930000	0.117128
4.930500	0.050166
4.931000	-0.004241
4.931500	-0.042229
4.932000	-0.067339
4.932500	-0.071524
4.933000	-0.088587
4.933500	-0.099854
4.934000	-0.065408
4.934500	-0.048023
4.935000	-0.017762
4.935500	-0.022913
4.936000	-0.023235
4.936500	0.030206
4.937000	0.054351
4.937500	0.040508
4.938000	0.049844
4.938500	0.062399
4.939000	0.069482
4.939500	0.050488
4.940000	0.020226
4.940500	-0.024200
4.941000	-0.058969
4.941500	-0.048345
4.942000	-0.020981
4.942500	-0.022591
4.943000	-0.006816
4.943500	0.011534
4.944000	0.030528
4.944500	0.034713
4.945000	0.028275
4.945500	0.009281
4.946000	-0.016796
4.946500	0.006061
4.947000	0.041796
4.947500	0.061756
4.948000	0.073667
4.948500	0.033747
4.949000	0.013466
4.949500	0.004452
4.950000	-0.062188
4.950500	-0.099854
4.951000	-0.086977
4.951500	-0.033536
4.952000	-0.011645
4.952500	-0.028385
4.953000	-0.048667
4.953500	-0.074422
4.954000	-0.082470
4.954500	-0.056394
4.955000	-0.022913
4.955500	-0.016152
4.956000	0.027953
4.956500	0.045015
4.957000	-0.007138
4.957500	-0.058969
4.958000	-0.104683
4.958500	-0.142028
4.959000	-0.115629
4.959500	-0.048345
4.960000	-0.019049
4.960500	-0.008748
4.961000	-0.001665
4.961500	0.022802
4.962000	0.034069
4.962500	0.020548
4.963000	-0.004884
4.963500	0.007671
4.964000	0.029884
4.964500	0.046303
4.965000	0.042118
4.965500	0.027953
4.966000	0.021192
4.966500	0.026343
4.967000	0.043727
4.967500	0.068838
4.968000	0.063043
4.968500	0.034069
4.969000	0.036323
4.969500	0.044049
4.970000	0.033104
4.970500	-0.022913
4.971000	-0.066373
4.971500	-0.045126
4.972000	-0.035790
4.972500	-0.018084
4.973000	0.027631
4.973500	0.077530
4.974000	0.086866
4.974500	0.046303
4.975000	0.014110
4.975500	-5.540373E-5
4.976000	-0.002953
4.976500	-0.033858
4.977000	-0.030639
4.977500	-0.042550
4.978000	-0.050921
4.978500	-0.059613
4.979000	-0.122712
4.979500	-0.169392
4.980000	-0.159090
4.980500	-0.100498
4.981000	-0.044482
4.981500	-0.024200
4.982000	0.001232
4.982500	0.006705
4.983000	-0.048023
4.983500	-0.048023
4.984000	0.044049
4.984500	0.109724
4.985000	0.112299
4.985500	0.107792
4.986000	0.092017
4.986500	0.044371
4.987000	0.017651
4.987500	0.016363
4.988000	0.009924
4.988500	0.017007
4.989000	0.030850
4.989500	0.057570
4.990000	0.032782
4.990500	0.012178
4.991000	-0.023556
4.991500	-0.045126
4.992000	-0.104683
4.992500	-0.159734
4.993000	-0.143959
4.993500	-0.144281
4.994000	-0.057359
4.994500	0.016363
4.995000	0.013144
4.995500	-0.043194
4.996000	-0.105971
4.996500	-0.137520
4.997000	-0.149432
4.997500	-0.109190
4.998000	-0.091806
4.998500	-0.040941
4.999000	0.011534
4.999500	0.054995

